SpectrumFile,BASELINE
Version,1.000000
Location,
Customer,
SampleInfo,
GPSData,51.118473,-114.185390,1162.000000,65322,71211
SystemTime,2011,12,7,0,3,29,515
Pipe km,0.000000
Pre-Dilution Factor,1.000000
Freeform Info,
Concentration,0.000000
CalibrationName,USB4000 dark
Unique Calibration File ID,20110323-0226570968-TESTBOX2-7E963C-00008931
CalibrationWavelength,700.000000
CalibrationType,2,0.000000,0.616679
CalibrationRSquared,1.000000
CalibrationConcentrations [ppm],2,0.000000,10.000000
CalibrationCounts,2,0.000000,16.215900
CalibrationWarnLow,0.000000
CalibrationWarnHigh,10.000000
CalibrationErrorLow,0.000000
CalibrationErrorHigh,0.000000
Spectrometer Name,USB4000
Spectrometer Serial,USB4H02759
IntegrationTime [ms],50.000000
AveragedSpectra,50
BoxcarWidth,100
WavelengthRange [nm],346.775360,1043.690197
IntensityRange [counts],-115.290401,1182.998093
WavelengthCount,3648
Wavelength [nm],Intensity [counts]
346.775,-106.812
346.991,-106.812
347.206,-106.812
347.421,-115.29
347.637,-106.648
347.852,67.2655
348.067,33.474
348.282,54.7729
348.498,43.591
348.713,53.2984
348.928,80.4954
349.143,76.2766
349.358,26.3881
349.574,41.8298
349.789,26.3471
350.004,99.4186
350.219,38.553
350.434,53.9128
350.649,48.7929
350.864,39.0036
351.079,64.2345
351.295,71.3615
351.51,29.9925
351.725,37.6109
351.94,14.8785
352.155,25.9375
352.37,60.753
352.585,47.4822
352.8,86.5574
353.015,8.85746
353.23,101.057
353.445,26.1833
353.66,55.7559
353.875,68.781
354.09,82.4615
354.305,33.7198
354.52,57.4353
354.735,30.2792
354.949,73.7371
355.164,84.1818
355.379,20.2851
355.594,60.5892
355.809,86.6393
356.024,69.805
356.239,67.2246
356.453,75.9899
356.668,54.4862
356.883,61.5722
357.098,86.7622
357.313,50.0216
357.527,71.4024
357.742,36.587
357.957,40.9287
358.172,56.4523
358.386,58.9917
358.601,55.0596
358.816,92.7013
359.03,22.5379
359.245,56.9028
359.46,94.012
359.674,61.0807
359.889,23.1932
360.104,77.874
360.318,58.9508
360.533,64.4803
360.748,39.618
360.962,57.2305
361.177,29.2962
361.391,54.2814
361.606,53.8309
361.82,63.9888
362.035,61.8999
362.25,35.2353
362.464,41.8298
362.679,111.788
362.893,50.4312
363.108,59.4833
363.322,83.4035
363.536,55.6331
363.751,48.7929
363.965,56.2884
364.18,53.708
364.394,71.0748
364.609,43.7139
364.823,63.9478
365.037,98.026
365.252,60.8349
365.466,30.2383
365.68,61.1626
365.895,40.6829
366.109,59.8519
366.323,36.7508
366.538,41.625
366.752,35.7268
366.966,53.7489
367.181,43.3862
367.395,40.1095
367.609,13.6497
367.823,95.5685
368.038,62.2275
368.252,53.9975
368.466,54.7487
368.68,55.6257
368.894,56.3718
369.109,57.0059
369.323,57.957
369.537,57.7886
369.751,57.9172
369.965,57.961
370.179,58.0668
370.393,58.1573
370.607,58.0688
370.822,58.1685
371.036,58.4491
371.25,58.4385
371.464,58.66
371.678,58.5249
371.892,58.658
372.106,58.5098
372.32,58.8234
372.534,58.9669
372.748,59.1539
372.962,59.169
373.176,59.2917
373.39,59.4659
373.604,59.7889
373.818,60.0198
374.031,59.9411
374.245,60.0575
374.459,60.0023
374.673,60.0895
374.887,59.9369
375.101,60.1217
375.315,60.1682
375.529,60.2069
375.742,60.0907
375.956,60.1537
376.17,60.1329
376.384,60.224
376.598,60.0581
376.811,59.8772
377.025,60.2458
377.239,60.408
377.453,60.4082
377.666,60.4565
377.88,60.3157
378.094,60.6652
378.307,60.7984
378.521,60.8993
378.735,60.6501
378.948,60.7424
379.162,60.7911
379.376,60.8897
379.589,61.1638
379.803,61.1445
380.016,60.9745
380.23,61.1993
380.444,61.1587
380.657,61.3185
380.871,61.4134
381.084,61.2512
381.298,61.0454
381.511,60.9843
381.725,61.2107
381.938,61.3927
382.152,61.3358
382.365,61.3572
382.579,61.3884
382.792,61.5131
383.006,61.5732
383.219,61.6737
383.433,61.64
383.646,61.6655
383.859,61.6708
384.073,61.7466
384.286,61.2983
384.5,61.3156
384.713,61.3833
384.926,61.2408
385.14,61.542
385.353,61.625
385.566,61.626
385.779,61.6144
385.993,61.5897
386.206,61.7338
386.419,61.6356
386.633,61.294
386.846,61.5025
387.059,61.7016
387.272,61.7022
387.485,62.0001
387.699,61.8884
387.912,62.0678
388.125,62.1972
388.338,62.6675
388.551,62.7987
388.764,62.8647
388.978,62.9569
389.191,63.0661
389.404,63.074
389.617,62.933
389.83,62.8698
390.043,63.0219
390.256,62.7474
390.469,62.9503
390.682,62.8794
390.895,62.9361
391.108,62.6956
391.321,62.618
391.534,62.2895
391.747,62.2626
391.96,61.7749
392.173,61.8613
392.386,62.2265
392.599,62.2587
392.812,62.6137
393.025,62.6453
393.238,62.708
393.451,62.6553
393.663,62.4955
393.876,62.7186
394.089,62.4519
394.302,62.6638
394.515,62.7219
394.728,62.6618
394.941,62.6051
395.153,62.4077
395.366,62.2355
395.579,62.3651
395.792,62.0875
396.004,62.2577
396.217,62.1067
396.43,62.1839
396.643,62.4871
396.855,62.3547
397.068,62.4193
397.281,62.4327
397.493,62.3938
397.706,62.3321
397.919,62.3567
398.131,62.6108
398.344,62.6997
398.557,62.609
398.769,62.1523
398.982,62.3533
399.194,62.2157
399.407,62.3139
399.619,62.4113
399.832,62.4715
400.045,62.6225
400.257,63.1559
400.47,63.2968
400.682,63.5914
400.895,63.7489
401.107,63.8468
401.319,63.9095
401.532,63.8834
401.744,64.0385
401.957,64.1718
402.169,63.8618
402.382,63.945
402.594,63.9906
402.806,64.2125
403.019,64.4573
403.231,64.3205
403.444,64.2152
403.656,64.2777
403.868,64.4889
404.081,64.7664
404.293,65.013
404.505,64.829
404.717,64.8118
404.93,65.0537
405.142,64.9308
405.354,65.1057
405.566,65.3867
405.779,65.4179
405.991,65.3368
406.203,65.437
406.415,65.3953
406.627,65.3906
406.84,65.3409
407.052,65.8348
407.264,65.5599
407.476,65.5
407.688,65.9251
407.9,65.9267
408.112,66.095
408.324,66.4571
408.537,66.5529
408.749,66.9301
408.961,67.108
409.173,67.3293
409.385,67.2914
409.597,67.0232
409.809,67.074
410.021,67.0885
410.233,67.3087
410.445,67.2411
410.657,67.8002
410.869,67.9883
411.081,67.9309
411.292,68.2208
411.504,68.3932
411.716,68.7295
411.928,69.0482
412.14,69.0961
412.352,69.2518
412.564,69.3375
412.776,69.3793
412.988,69.5065
413.199,69.3347
413.411,69.3162
413.623,69.3078
413.835,69.2383
414.047,69.4325
414.258,69.7463
414.47,69.9041
414.682,69.7588
414.894,69.9073
415.105,69.7099
415.317,69.6204
415.529,69.5193
415.74,69.4586
415.952,69.643
416.164,69.6283
416.375,69.5295
416.587,69.6532
416.799,69.9179
417.01,69.9815
417.222,70.0832
417.433,70.4942
417.645,70.4526
417.857,70.5521
418.068,70.6831
418.28,70.7442
418.491,70.863
418.703,71.1286
418.914,71.4142
419.126,71.7609
419.337,72.0087
419.549,71.9669
419.76,71.9009
419.972,71.8597
420.183,72.0401
420.394,72.0857
420.606,72.2357
420.817,71.9863
421.029,72.0182
421.24,72.0543
421.451,72.2669
421.663,72.5831
421.874,72.7688
422.085,72.7667
422.297,72.6369
422.508,72.8639
422.719,73.4926
422.931,73.5026
423.142,73.612
423.353,73.8871
423.565,74.0839
423.776,74.2115
423.987,74.6769
424.198,74.9869
424.409,74.8076
424.621,74.9288
424.832,75.0908
425.043,75.327
425.254,75.5461
425.465,75.6459
425.676,75.8896
425.888,76.1545
426.099,76.2621
426.31,76.3703
426.521,76.4999
426.732,76.6385
426.943,77.0228
427.154,77.2861
427.365,77.246
427.576,77.4669
427.787,77.1912
427.998,77.228
428.209,77.4654
428.42,77.8282
428.631,78.0794
428.842,78.1452
429.053,78.1045
429.264,78.5797
429.475,78.6675
429.686,78.8795
429.897,79.0989
430.108,79.006
430.319,79.587
430.529,79.6646
430.74,79.7151
430.951,79.8282
431.162,79.9334
431.373,80.0656
431.584,80.4033
431.794,80.8027
432.005,80.8184
432.216,81.132
432.427,81.2231
432.637,81.5528
432.848,82.2642
433.059,82.212
433.27,82.0888
433.48,82.4871
433.691,82.8366
433.902,83.3831
434.112,83.4374
434.323,83.7679
434.534,84.1184
434.744,84.2993
434.955,84.1779
435.166,84.2356
435.376,84.2965
435.587,84.724
435.797,84.908
436.008,84.9938
436.218,85.5485
436.429,85.8827
436.64,86.2587
436.85,86.2972
437.061,86.4472
437.271,87.0057
437.482,87.2511
437.692,87.7721
437.902,87.9551
438.113,88.1035
438.323,88.3828
438.534,88.3341
438.744,88.3871
438.955,88.8305
439.165,89.0146
439.375,89.039
439.586,88.9157
439.796,89.0716
440.006,89.127
440.217,89.58
440.427,89.8435
440.637,89.8835
440.848,89.7806
441.058,89.9856
441.268,90.375
441.479,90.4765
441.689,90.8157
441.899,91.0996
442.109,91.1228
442.319,91.5104
442.53,91.616
442.74,91.4699
442.95,91.9871
443.16,92.0643
443.37,92.5417
443.58,92.6074
443.791,93.1221
444.001,93.3004
444.211,93.4946
444.421,93.8987
444.631,94.485
444.841,94.984
445.051,95.2443
445.261,95.2856
445.471,96.8402
445.681,97.4082
445.891,97.8622
446.101,98.12
446.311,98.3722
446.521,98.4342
446.731,98.5758
446.941,99.0343
447.151,99.6715
447.361,99.7916
447.571,99.9144
447.781,100.39
447.991,100.53
448.201,100.969
448.41,101.709
448.62,101.873
448.83,102.217
449.04,102.305
449.25,102.79
449.46,102.896
449.669,103.142
449.879,103.445
450.089,103.515
450.299,104.098
450.508,104.23
450.718,104.517
450.928,104.537
451.138,104.76
451.347,105.229
451.557,105.633
451.767,105.99
451.976,106.473
452.186,106.988
452.396,107.161
452.605,107.277
452.815,107.742
453.025,107.763
453.234,108.178
453.444,108.42
453.653,108.603
453.863,108.612
454.072,108.761
454.282,109.048
454.491,109.227
454.701,109.596
454.911,109.922
455.12,110.306
455.329,110.563
455.539,111.117
455.748,111.456
455.958,111.563
456.167,112.05
456.377,112.395
456.586,112.43
456.795,112.534
457.005,112.998
457.214,113.632
457.424,113.953
457.633,114.342
457.842,114.668
458.052,115.12
458.261,115.333
458.47,115.683
458.679,116.037
458.889,116.286
459.098,116.603
459.307,116.963
459.517,117.297
459.726,117.505
459.935,118.022
460.144,118.266
460.353,118.467
460.563,118.956
460.772,119.203
460.981,119.661
461.19,120.053
461.399,120.323
461.608,120.658
461.817,121.418
462.026,122.046
462.236,122.547
462.445,122.985
462.654,123.516
462.863,123.974
463.072,124.499
463.281,124.912
463.49,125.263
463.699,125.797
463.908,126.184
464.117,126.282
464.326,126.955
464.535,127.704
464.744,128.185
464.952,128.165
465.161,128.305
465.37,128.745
465.579,129.006
465.788,129.238
465.997,129.842
466.206,130.227
466.415,130.843
466.623,131.463
466.832,131.82
467.041,132.477
467.25,132.928
467.459,133.337
467.667,133.858
467.876,134.499
468.085,135.009
468.294,135.438
468.502,135.971
468.711,136.815
468.92,137.381
469.128,138.137
469.337,138.452
469.546,139.085
469.754,139.61
469.963,140.389
470.172,141.274
470.38,141.764
470.589,142
470.798,142.542
471.006,143.028
471.215,143.8
471.423,144.312
471.632,144.715
471.84,145.167
472.049,145.85
472.257,146.429
472.466,146.907
472.674,147.506
472.883,148.279
473.091,148.535
473.3,149.183
473.508,149.831
473.716,150.478
473.925,150.971
474.133,151.539
474.342,152.123
474.55,152.897
474.758,153.669
474.967,153.874
475.175,154.816
475.383,155.771
475.592,156.279
475.8,156.686
476.008,157.061
476.217,157.771
476.425,158.448
476.633,158.82
476.841,159.188
477.05,159.831
477.258,160.705
477.466,161.253
477.674,161.507
477.882,162.224
478.091,162.916
478.299,163.506
478.507,163.948
478.715,164.882
478.923,165.281
479.131,166.164
479.339,166.511
479.547,167.297
479.755,167.941
479.963,168.701
480.171,169.399
480.38,169.99
480.588,170.992
480.796,171.793
481.004,171.937
481.212,172.563
481.42,173.381
481.627,174.491
481.835,175.214
482.043,176.043
482.251,176.618
482.459,177.274
482.667,177.933
482.875,178.605
483.083,179.718
483.291,180.408
483.499,181.209
483.706,181.773
483.914,182.35
484.122,183.093
484.33,183.739
484.538,184.569
484.745,185.22
484.953,185.62
485.161,186.131
485.369,186.828
485.576,187.986
485.784,188.509
485.992,189.411
486.199,190.076
486.407,190.71
486.615,191.352
486.822,191.82
487.03,192.504
487.238,193.164
487.445,192.295
487.653,192.815
487.861,193.571
488.068,194.036
488.276,194.652
488.483,195.431
488.691,196.206
488.898,196.924
489.106,197.328
489.313,198.165
489.521,199.016
489.728,199.379
489.936,200.091
490.143,200.778
490.351,201.198
490.558,202.018
490.766,202.601
490.973,203.445
491.18,203.771
491.388,204.381
491.595,205.226
491.802,206.125
492.01,206.748
492.217,207.172
492.424,208.131
492.632,208.625
492.839,209.788
493.046,210.381
493.254,210.96
493.461,211.426
493.668,212.192
493.875,213.072
494.083,213.311
494.29,213.999
494.497,214.845
494.704,215.262
494.911,215.989
495.119,216.518
495.326,217.378
495.533,218.163
495.74,218.833
495.947,219.345
496.154,219.968
496.361,220.377
496.568,220.687
496.775,221.118
496.982,221.608
497.19,222.345
497.397,222.894
497.604,223.587
497.811,224.297
498.018,224.962
498.225,225.651
498.432,226.258
498.638,226.886
498.845,227.869
499.052,228.304
499.259,228.953
499.466,229.659
499.673,230.043
499.88,230.809
500.087,231.289
500.294,231.884
500.501,232.43
500.707,232.937
500.914,233.321
501.121,233.996
501.328,234.34
501.535,235.255
501.741,236.044
501.948,236.649
502.155,237.537
502.362,237.849
502.568,238.441
502.775,239.046
502.982,239.503
503.188,240.005
503.395,240.502
503.602,240.603
503.808,240.709
504.015,241.077
504.222,241.218
504.428,241.676
504.635,242.644
504.841,242.819
505.048,243.287
505.254,243.817
505.461,244.436
505.668,244.662
505.874,245.386
506.081,245.98
506.287,246.061
506.494,246.338
506.7,246.979
506.907,247.808
507.113,248.169
507.319,248.824
507.526,249.505
507.732,250.079
507.939,250.515
508.145,250.629
508.351,250.813
508.558,251.037
508.764,251.234
508.97,251.549
509.177,251.89
509.383,252.272
509.589,252.459
509.796,252.5
510.002,253.062
510.208,253.233
510.414,253.312
510.621,253.584
510.827,253.654
511.033,254.159
511.239,254.508
511.445,254.75
511.652,254.942
511.858,255.254
512.064,255.517
512.27,255.923
512.476,256.016
512.682,256.442
512.888,256.711
513.095,256.865
513.301,257.162
513.507,257.34
513.713,257.42
513.919,257.768
514.125,257.812
514.331,258.273
514.537,258.469
514.743,258.849
514.949,259.145
515.155,259.494
515.361,259.591
515.567,259.783
515.773,259.952
515.978,260.125
516.184,260.22
516.39,260.007
516.596,260.198
516.802,260.19
517.008,260.144
517.214,260.292
517.419,260.634
517.625,260.94
517.831,261.113
518.037,261.168
518.243,261.575
518.448,262.097
518.654,262.377
518.86,262.492
519.066,262.912
519.271,263.213
519.477,263.4
519.683,263.54
519.888,263.843
520.094,264.034
520.3,263.809
520.505,264.352
520.711,264.561
520.917,265.155
521.122,265.482
521.328,265.579
521.533,265.689
521.739,266.174
521.944,266.419
522.15,266.473
522.356,266.662
522.561,267.197
522.767,267.185
522.972,267.234
523.177,267.402
523.383,268.012
523.588,268.171
523.794,268.187
523.999,268.103
524.205,268.457
524.41,268.694
524.615,268.592
524.821,268.724
525.026,268.755
525.232,268.904
525.437,269.26
525.642,269.467
525.847,269.735
526.053,269.798
526.258,270.076
526.463,270.259
526.669,270.502
526.874,270.275
527.079,269.884
527.284,270.035
527.49,270
527.695,269.885
527.9,269.868
528.105,269.691
528.31,269.602
528.515,269.579
528.721,269.66
528.926,269.498
529.131,269.413
529.336,269.515
529.541,269.7
529.746,269.74
529.951,269.725
530.156,269.78
530.361,269.527
530.566,269.516
530.771,269.454
530.976,269.31
531.181,269.479
531.386,269.323
531.591,269.135
531.796,269.195
532.001,269.174
532.206,268.928
532.411,268.856
532.616,268.902
532.821,268.703
533.025,268.307
533.23,267.912
533.435,267.824
533.64,267.629
533.845,267.293
534.05,267.337
534.254,266.966
534.459,266.81
534.664,266.393
534.869,266.49
535.073,266.332
535.278,266.001
535.483,265.857
535.688,265.677
535.892,265.505
536.097,265.446
536.302,264.963
536.506,264.968
536.711,264.815
536.916,264.45
537.12,264.239
537.325,264.369
537.529,264.133
537.734,264.031
537.938,264.727
538.143,264.973
538.348,264.858
538.552,264.416
538.757,264.409
538.961,264.462
539.166,264.301
539.37,264.278
539.575,263.922
539.779,263.635
539.983,263.573
540.188,263.145
540.392,262.86
540.597,262.769
540.801,262.516
541.005,262.374
541.21,261.803
541.414,261.742
541.618,261.592
541.823,261.457
542.027,261.128
542.231,261.114
542.436,260.638
542.64,260.625
542.844,259.954
543.048,259.507
543.253,259.194
543.457,258.616
543.661,258.311
543.865,258.186
544.069,257.705
544.274,257.476
544.478,257.143
544.682,257.072
544.886,256.883
545.09,257.049
545.294,256.754
545.498,256.887
545.702,256.449
545.907,255.765
546.111,255.538
546.315,255.321
546.519,255.051
546.723,254.496
546.927,254.434
547.131,254.206
547.335,253.787
547.539,253.833
547.743,253.687
547.947,253.546
548.15,253.062
548.354,252.746
548.558,252.401
548.762,252.051
548.966,251.417
549.17,251.125
549.374,250.881
549.578,250.558
549.781,250.362
549.985,250.12
550.189,250.04
550.393,250.011
550.597,249.67
550.8,249.287
551.004,249.147
551.208,249.075
551.412,248.938
551.615,248.723
551.819,248.565
552.023,248.302
552.226,247.896
552.43,247.463
552.634,246.967
552.837,246.818
553.041,246.251
553.244,245.926
553.448,245.792
553.652,245.633
553.855,245.39
554.059,245.43
554.262,245.194
554.466,244.961
554.669,244.747
554.873,244.645
555.076,244.504
555.28,244.231
555.483,243.878
555.687,243.517
555.89,243.07
556.094,242.569
556.297,242.163
556.5,241.781
556.704,241.427
556.907,241.254
557.111,241.039
557.314,240.703
557.517,240.653
557.721,240.445
557.924,240.34
558.127,239.949
558.33,239.596
558.534,239.361
558.737,238.977
558.94,238.505
559.144,238.253
559.347,238.014
559.55,237.596
559.753,237.29
559.956,236.895
560.159,236.716
560.363,236.849
560.566,236.621
560.769,236.372
560.972,235.921
561.175,235.714
561.378,235.728
561.581,235.165
561.784,234.942
561.987,234.441
562.19,233.869
562.394,233.53
562.597,233.786
562.8,233.371
563.003,233.091
563.205,232.738
563.408,232.641
563.611,232.383
563.814,232.442
564.017,232.467
564.22,231.958
564.423,231.452
564.626,231.303
564.829,231.108
565.032,231.255
565.235,230.793
565.437,230.763
565.64,230.431
565.843,230.474
566.046,230.381
566.249,230.289
566.451,229.794
566.654,229.787
566.857,229.827
567.06,229.743
567.262,229.78
567.465,230.02
567.668,229.983
567.87,229.892
568.073,229.931
568.276,229.708
568.478,229.754
568.681,229.989
568.884,229.919
569.086,230.213
569.289,230.316
569.491,230.615
569.694,230.662
569.896,230.927
570.099,231.228
570.301,231.103
570.504,231.146
570.706,231.092
570.909,231.108
571.111,231.253
571.314,231.807
571.516,231.953
571.719,232.166
571.921,232.302
572.124,232.438
572.326,232.583
572.528,232.819
572.731,232.947
572.933,233.272
573.135,233.802
573.338,233.848
573.54,233.905
573.742,234.072
573.945,234.738
574.147,235.132
574.349,235.409
574.551,235.578
574.754,235.983
574.956,236.446
575.158,236.535
575.36,237.172
575.562,237.763
575.765,237.792
575.967,238.04
576.169,238.691
576.371,239.007
576.573,239.478
576.775,239.502
576.977,239.703
577.179,240.124
577.382,240.195
577.584,240.592
577.786,240.968
577.988,241.659
578.19,241.804
578.392,242.398
578.594,242.959
578.796,242.904
578.998,243.107
579.2,243.36
579.401,243.975
579.603,244.441
579.805,244.742
580.007,245.006
580.209,244.856
580.411,245.746
580.613,246.378
580.815,246.856
581.016,247.25
581.218,247.794
581.42,248.229
581.622,248.765
581.824,249.513
582.025,250.476
582.227,251.129
582.429,251.455
582.631,251.792
582.832,252.38
583.034,252.907
583.236,253.394
583.437,253.927
583.639,254.645
583.841,255.047
584.042,255.716
584.244,256.229
584.446,256.96
584.647,257.451
584.849,257.824
585.05,258.132
585.252,258.613
585.453,259.037
585.655,259.654
585.856,259.919
586.058,260.413
586.259,260.917
586.461,261.408
586.662,262.142
586.864,262.85
587.065,263.652
587.267,264.126
587.468,264.912
587.67,265.752
587.871,266.26
588.072,266.734
588.274,267.306
588.475,268.092
588.676,268.454
588.878,269.048
589.079,269.885
589.28,270.506
589.481,271.043
589.683,271.529
589.884,272.287
590.085,273.086
590.286,273.901
590.488,274.57
590.689,275.157
590.89,275.617
591.091,275.87
591.292,276.656
591.494,277.204
591.695,277.758
591.896,278.366
592.097,279.033
592.298,279.469
592.499,280.11
592.7,280.844
592.901,281.656
593.102,282.658
593.303,283.641
593.504,284.239
593.705,285.115
593.906,285.886
594.107,286.744
594.308,287.193
594.509,287.64
594.71,287.999
594.911,288.79
595.112,289.37
595.313,290.108
595.514,290.768
595.715,291.295
595.915,291.963
596.116,292.544
596.317,293.484
596.518,294.317
596.719,295.023
596.92,295.85
597.12,296.642
597.321,297.457
597.522,298.283
597.723,299.026
597.923,299.789
598.124,300.28
598.325,301.248
598.525,301.441
598.726,302.181
598.927,302.997
599.127,303.643
599.328,304.476
599.529,305.266
599.729,305.805
599.93,306.522
600.13,307.069
600.331,307.55
600.531,308.27
600.732,308.749
600.933,309.077
601.133,309.663
601.334,310.401
601.534,310.843
601.734,311.234
601.935,311.708
602.135,312.228
602.336,312.634
602.536,313.123
602.737,313.754
602.937,314.371
603.137,314.324
603.338,314.707
603.538,315.079
603.738,315.749
603.939,316.43
604.139,316.934
604.339,317.337
604.54,317.629
604.74,318.402
604.94,318.87
605.14,319.302
605.341,319.726
605.541,320.242
605.741,320.626
605.941,320.692
606.141,321.278
606.342,321.644
606.542,322.205
606.742,322.49
606.942,323.111
607.142,323.603
607.342,324.055
607.542,324.292
607.742,324.415
607.942,324.383
608.142,324.688
608.343,325.234
608.543,325.765
608.743,326.253
608.943,326.499
609.143,326.755
609.342,327.252
609.542,327.536
609.742,327.877
609.942,328.05
610.142,328.178
610.342,328.44
610.542,328.527
610.742,329.098
610.942,329.295
611.142,329.782
611.341,330.156
611.541,330.213
611.741,330.047
611.941,330.312
612.141,330.514
612.34,330.833
612.54,331.025
612.74,331.535
612.94,331.636
613.139,332.066
613.339,331.93
613.539,332.126
613.738,332.313
613.938,332.711
614.138,333.04
614.337,332.961
614.537,333.249
614.736,333.26
614.936,333.803
615.136,333.801
615.335,333.683
615.535,333.924
615.734,334.151
615.934,334.403
616.133,334.598
616.333,335.029
616.532,335.164
616.732,335.63
616.931,335.779
617.131,336.434
617.33,336.911
617.529,337.309
617.729,337.571
617.928,337.82
618.128,337.961
618.327,337.882
618.526,337.933
618.726,338.1
618.925,338.359
619.124,338.482
619.324,338.736
619.523,339.078
619.722,339.265
619.921,339.538
620.121,339.547
620.32,340.136
620.519,340.496
620.718,340.347
620.917,340.455
621.117,340.572
621.316,340.756
621.515,340.852
621.714,341.043
621.913,340.907
622.112,341.167
622.311,340.926
622.51,341.111
622.709,341.248
622.909,341.707
623.108,342.217
623.307,341.996
623.506,342.336
623.705,342.516
623.904,342.446
624.103,342.625
624.301,342.701
624.5,343.061
624.699,343.358
624.898,343.448
625.097,343.855
625.296,344.267
625.495,344.512
625.694,344.56
625.893,345.045
626.091,345.349
626.29,345.889
626.489,345.757
626.688,346.08
626.887,346.086
627.085,346.267
627.284,345.971
627.483,346.298
627.682,346.227
627.88,345.74
628.079,345.988
628.278,346.419
628.476,346.521
628.675,346.528
628.874,346.804
629.072,346.803
629.271,347.055
629.47,347.282
629.668,347.461
629.867,347.652
630.065,347.544
630.264,347.671
630.462,347.769
630.661,347.949
630.859,348.259
631.058,348.785
631.256,349.349
631.455,350.025
631.653,350.47
631.852,350.777
632.05,350.708
632.249,350.799
632.447,351.298
632.645,351.661
632.844,351.829
633.042,352.033
633.24,352.122
633.439,352.374
633.637,352.595
633.835,352.706
634.034,352.927
634.232,352.963
634.43,353.426
634.628,353.904
634.827,354.318
635.025,354.563
635.223,355.016
635.421,355.021
635.62,355.065
635.818,355.358
636.016,355.432
636.214,355.723
636.412,355.678
636.61,355.69
636.808,355.969
637.006,356.085
637.205,356.314
637.403,356.801
637.601,356.657
637.799,356.767
637.997,357.079
638.195,357.333
638.393,357.108
638.591,357.552
638.789,357.829
638.987,358.208
639.184,358.47
639.382,358.608
639.58,358.75
639.778,358.822
639.976,358.967
640.174,359.284
640.372,360.049
640.57,360.249
640.767,360.615
640.965,360.686
641.163,360.871
641.361,361.305
641.559,361.945
641.756,362.499
641.954,362.599
642.152,363.239
642.35,363.727
642.547,363.834
642.745,364.199
642.943,364.809
643.14,365.313
643.338,365.806
643.536,366.414
643.733,366.532
643.931,366.613
644.128,366.819
644.326,367.048
644.524,367.436
644.721,367.52
644.919,368.124
645.116,368.503
645.314,368.828
645.511,368.845
645.709,369.192
645.906,369.932
646.104,370.442
646.301,371.075
646.498,371.123
646.696,371.545
646.893,371.735
647.091,371.786
647.288,371.843
647.485,372.327
647.683,372.783
647.88,373.276
648.077,373.786
648.275,374.171
648.472,374.406
648.669,374.758
648.867,375.217
649.064,375.653
649.261,376.306
649.458,376.608
649.655,377.041
649.853,377.358
650.05,377.815
650.247,378.538
650.444,379.222
650.641,379.452
650.838,380.225
651.036,380.695
651.233,380.925
651.43,381.18
651.627,381.86
651.824,382.115
652.021,382.525
652.218,383.06
652.415,383.485
652.612,383.587
652.809,384.239
653.006,384.382
653.203,384.994
653.4,385.438
653.597,386.087
653.794,386.661
653.991,387.21
654.187,387.755
654.384,387.92
654.581,388.394
654.778,388.604
654.975,389.036
655.172,389.548
655.369,389.856
655.565,389.907
655.762,390.108
655.959,390.576
656.156,390.686
656.352,390.542
656.549,390.978
656.746,391.159
656.943,391.26
657.139,391.593
657.336,392.116
657.533,392.534
657.729,392.653
657.926,393.077
658.122,393.827
658.319,394.5
658.516,394.867
658.712,395.383
658.909,395.795
659.105,396.067
659.302,396.466
659.498,396.865
659.695,396.916
659.891,397.169
660.088,397.411
660.284,398.076
660.481,398.546
660.677,398.961
660.874,399.309
661.07,399.723
661.266,400.121
661.463,400.292
661.659,400.658
661.856,400.756
662.052,401.163
662.248,401.139
662.444,401.586
662.641,401.695
662.837,402.015
663.033,402.698
663.23,402.812
663.426,402.838
663.622,403.355
663.818,403.564
664.014,403.915
664.211,404.094
664.407,404.364
664.603,404.69
664.799,404.997
664.995,405.231
665.191,405.53
665.387,405.841
665.584,405.889
665.78,406.135
665.976,406.145
666.172,406.467
666.368,406.708
666.564,406.968
666.76,407.435
666.956,407.979
667.152,408.085
667.348,408.691
667.544,409.236
667.74,409.295
667.936,409.141
668.131,409.201
668.327,409.24
668.523,409.747
668.719,410.224
668.915,410.087
669.111,410.287
669.307,410.595
669.502,411.007
669.698,411.403
669.894,411.664
670.09,411.863
670.285,411.897
670.481,412.166
670.677,412.119
670.873,411.916
671.068,411.399
671.264,411.606
671.46,411.718
671.655,411.614
671.851,411.853
672.047,411.896
672.242,411.668
672.438,411.656
672.633,411.832
672.829,411.644
673.025,411.563
673.22,411.525
673.416,411.411
673.611,411.628
673.807,411.726
674.002,411.522
674.198,411.596
674.393,411.605
674.589,411.46
674.784,411.428
674.979,411.558
675.175,411.503
675.37,411.332
675.566,411.57
675.761,411.496
675.956,411.386
676.152,411.503
676.347,411.503
676.542,411.69
676.738,411.721
676.933,411.304
677.128,411.517
677.323,411.77
677.519,411.628
677.714,411.815
677.909,412.052
678.104,412.259
678.299,412.418
678.494,412.286
678.69,412.135
678.885,412.101
679.08,412.137
679.275,412.397
679.47,412.086
679.665,412.033
679.86,411.446
680.055,411.28
680.25,411.106
680.445,411.143
680.64,411.163
680.835,410.823
681.03,410.588
681.225,410.56
681.42,410.771
681.615,410.358
681.81,409.978
682.005,410.205
682.2,410.039
682.395,409.659
682.59,409.614
682.785,409.418
682.979,409.018
683.174,409.009
683.369,408.626
683.564,408.49
683.759,408.172
683.953,408.131
684.148,408.013
684.343,407.456
684.538,407.397
684.732,406.975
684.927,407.014
685.122,407.117
685.316,406.926
685.511,406.377
685.706,405.9
685.9,406.046
686.095,405.863
686.29,405.545
686.484,405.517
686.679,405.283
686.873,405.132
687.068,404.71
687.262,404.443
687.457,403.958
687.651,403.677
687.846,403.253
688.04,403.325
688.235,402.938
688.429,402.617
688.624,401.967
688.818,401.724
689.013,401.324
689.207,401.051
689.401,400.744
689.596,400.193
689.79,399.943
689.984,399.636
690.179,399.124
690.373,398.881
690.567,398.498
690.762,398.383
690.956,398.063
691.15,397.747
691.344,397.209
691.538,396.772
691.733,396.411
691.927,396.247
692.121,395.668
692.315,395.379
692.509,394.984
692.703,394.612
692.898,394.073
693.092,393.803
693.286,393.322
693.48,392.891
693.674,392.652
693.868,392.353
694.062,392.201
694.256,391.727
694.45,391.266
694.644,391.232
694.838,390.999
695.032,390.89
695.226,390.453
695.42,390.105
695.614,390.31
695.808,389.916
696.002,389.716
696.195,389.467
696.389,388.966
696.583,388.544
696.777,388.422
696.971,388.073
697.165,387.805
697.358,387.054
697.552,386.455
697.746,386.031
697.94,385.72
698.133,385.688
698.327,385.241
698.521,384.996
698.715,384.377
698.908,384.034
699.102,383.933
699.296,383.646
699.489,383.12
699.683,382.547
699.876,382.266
700.07,381.95
700.264,381.61
700.457,381.308
700.651,381.113
700.844,381.019
701.038,380.783
701.231,380.625
701.425,380.432
701.618,380.205
701.812,379.907
702.005,379.404
702.199,379.106
702.392,379.062
702.586,379.202
702.779,378.842
702.972,378.731
703.166,378.674
703.359,378.614
703.552,378.086
703.746,377.822
703.939,377.681
704.132,377.398
704.326,377.161
704.519,376.916
704.712,376.721
704.905,376.539
705.099,376.293
705.292,376.076
705.485,376.129
705.678,375.755
705.871,375.273
706.064,375.003
706.258,374.726
706.451,374.303
706.644,374.09
706.837,374.235
707.03,374.34
707.223,374.282
707.416,374.21
707.609,373.561
707.802,373.58
707.995,373.459
708.188,373.317
708.381,373.011
708.574,373.064
708.767,372.537
708.96,372.139
709.153,372.075
709.346,372.229
709.539,371.808
709.732,371.65
709.924,371.722
710.117,371.866
710.31,371.374
710.503,371.339
710.696,371.58
710.889,371.47
711.081,371.464
711.274,371.556
711.467,371.678
711.66,371.516
711.852,371.575
712.045,371.612
712.238,371.582
712.43,371.734
712.623,371.431
712.816,371.197
713.008,371.471
713.201,371.569
713.394,371.484
713.586,371.506
713.779,371.547
713.971,371.83
714.164,371.867
714.356,371.833
714.549,371.982
714.741,372.098
714.934,372.391
715.126,372.554
715.319,372.62
715.511,372.421
715.704,372.338
715.896,372.731
716.088,372.717
716.281,372.573
716.473,372.873
716.666,372.834
716.858,372.74
717.05,372.671
717.243,372.744
717.435,372.924
717.627,373.068
717.819,373.447
718.012,373.717
718.204,374.011
718.396,374.651
718.588,375.01
718.781,375.442
718.973,375.937
719.165,376.149
719.357,376.347
719.549,376.306
719.741,376.483
719.934,376.613
720.126,376.821
720.318,377.082
720.51,377.326
720.702,377.752
720.894,378.047
721.086,378.827
721.278,379.08
721.47,379.451
721.662,379.795
721.854,380.757
722.046,381.203
722.238,381.739
722.43,382.182
722.622,382.835
722.814,382.94
723.005,383.405
723.197,383.962
723.389,384.264
723.581,385.137
723.773,385.442
723.965,386.026
724.156,386.472
724.348,387.108
724.54,387.704
724.732,388.113
724.923,388.578
725.115,389.321
725.307,389.929
725.499,390.76
725.69,391.215
725.882,392.144
726.074,392.823
726.265,393.911
726.457,394.412
726.648,395.363
726.84,395.968
727.032,396.882
727.223,397.597
727.415,398.411
727.606,399.482
727.798,400.402
727.989,401.048
728.181,401.887
728.372,403.029
728.564,403.795
728.755,404.887
728.947,405.652
729.138,406.473
729.329,407.663
729.521,408.749
729.712,409.554
729.904,410.679
730.095,411.914
730.286,413.129
730.478,414.131
730.669,415.331
730.86,416.877
731.051,418.077
731.243,419.124
731.434,420.525
731.625,422.166
731.816,423.274
732.008,424.76
732.199,426.312
732.39,427.835
732.581,429.03
732.772,430.057
732.963,431.698
733.154,433.194
733.346,434.502
733.537,435.871
733.728,436.958
733.919,438.582
734.11,440.398
734.301,441.625
734.492,443.253
734.683,444.793
734.874,446.401
735.065,447.985
735.256,449.561
735.447,451.194
735.638,453.27
735.829,454.985
736.019,456.796
736.21,458.884
736.401,460.757
736.592,462.659
736.783,464.494
736.974,466.866
737.164,468.55
737.355,471.039
737.546,473.139
737.737,475.157
737.928,476.842
738.118,479.009
738.309,481.586
738.5,483.857
738.69,485.872
738.881,488.167
739.072,490.352
739.262,492.718
739.453,495.057
739.644,497.241
739.834,499.388
740.025,501.971
740.215,504.562
740.406,507.311
740.596,509.793
740.787,512.224
740.978,514.799
741.168,517.454
741.358,520.038
741.549,522.918
741.739,525.277
741.93,527.966
742.12,530.666
742.311,533.469
742.501,536.07
742.691,538.821
742.882,541.953
743.072,544.744
743.263,547.57
743.453,550.357
743.643,553.416
743.833,556.602
744.024,559.302
744.214,562.524
744.404,565.447
744.594,568.544
744.785,571.756
744.975,575.016
745.165,578.204
745.355,581.055
745.545,584.045
745.736,587.175
745.926,590.16
746.116,593.603
746.306,596.673
746.496,599.902
746.686,603.158
746.876,606.286
747.066,609.29
747.256,613.124
747.446,616.568
747.636,619.864
747.826,623.149
748.016,626.642
748.206,630.207
748.396,633.557
748.586,636.893
748.776,640.729
748.966,644.164
749.156,647.712
749.346,651.241
749.535,654.728
749.725,658.426
749.915,661.931
750.105,665.549
750.295,669.281
750.484,672.849
750.674,676.667
750.864,680.222
751.054,684.277
751.243,687.855
751.433,691.648
751.623,695.143
751.812,698.86
752.002,702.645
752.192,706.323
752.381,709.814
752.571,713.674
752.761,717.817
752.95,721.446
753.14,725.031
753.329,728.867
753.519,732.536
753.708,736.822
753.898,740.645
754.087,744.441
754.277,748.069
754.466,752.213
754.656,755.999
754.845,759.819
755.035,763.771
755.224,768.035
755.413,772.31
755.603,776.159
755.792,779.943
755.982,783.973
756.171,787.611
756.36,791.53
756.549,795.217
756.739,799.23
756.928,803.394
757.117,807.304
757.307,811.285
757.496,815.279
757.685,819.22
757.874,823.559
758.063,827.659
758.253,831.569
758.442,835.262
758.631,839.002
758.82,843.194
759.009,847.072
759.198,850.999
759.387,854.688
759.576,858.763
759.765,862.767
759.954,866.642
760.143,870.103
760.332,873.727
760.521,877.836
760.71,881.594
760.899,885.358
761.088,889.353
761.277,893.356
761.466,896.893
761.655,900.843
761.844,904.654
762.033,908.997
762.222,912.52
762.411,916.114
762.599,920.063
762.788,923.79
762.977,927.421
763.166,931.311
763.355,935.168
763.543,939.023
763.732,943.129
763.921,946.993
764.109,950.617
764.298,954.139
764.487,957.713
764.675,961.582
764.864,965.079
765.053,968.64
765.241,972.058
765.43,975.252
765.619,978.766
765.807,982.303
765.996,985.326
766.184,989.056
766.373,992.738
766.561,996.005
766.75,999.353
766.938,1002.52
767.127,1006.22
767.315,1009.76
767.504,1013.02
767.692,1016.29
767.881,1019.76
768.069,1023.22
768.257,1026.21
768.446,1029.34
768.634,1032.84
768.822,1035.65
769.011,1038.68
769.199,1041.85
769.387,1045.17
769.576,1047.95
769.764,1050.6
769.952,1053.49
770.14,1056.35
770.328,1059.06
770.517,1062.05
770.705,1065.13
770.893,1068.13
771.081,1070.92
771.269,1073.49
771.457,1076.34
771.646,1079.22
771.834,1082.39
772.022,1085.09
772.21,1087.48
772.398,1090.11
772.586,1092.65
772.774,1095.39
772.962,1097.76
773.15,1100.44
773.338,1102.92
773.526,1105.18
773.714,1107.58
773.902,1110.23
774.09,1113.02
774.278,1115.12
774.465,1117.51
774.653,1119.71
774.841,1121.76
775.029,1123.52
775.217,1125.75
775.405,1127.41
775.592,1129.37
775.78,1131.44
775.968,1133.7
776.156,1135.37
776.343,1136.95
776.531,1138.65
776.719,1140.62
776.907,1142.31
777.094,1143.97
777.282,1145.49
777.47,1147.26
777.657,1149.07
777.845,1150.79
778.032,1152.37
778.22,1153.8
778.408,1155.01
778.595,1156.35
778.783,1157.82
778.97,1159.04
779.158,1160.02
779.345,1161.22
779.533,1162.37
779.72,1163.73
779.908,1164.62
780.095,1165.71
780.282,1166.73
780.47,1167.75
780.657,1168.69
780.845,1169.1
781.032,1170.04
781.219,1170.96
781.407,1171.85
781.594,1172.45
781.781,1172.87
781.969,1173.55
782.156,1174.04
782.343,1174.74
782.53,1175.53
782.718,1176.21
782.905,1176.82
783.092,1177.28
783.279,1177.86
783.466,1178.37
783.653,1178.97
783.841,1179.87
784.028,1180.07
784.215,1180.46
784.402,1180.99
784.589,1181.27
784.776,1181.69
784.963,1181.98
785.15,1182.05
785.337,1182.25
785.524,1182.3
785.711,1182.33
785.898,1182.81
786.085,1182.73
786.272,1182.74
786.459,1182.81
786.646,1182.87
786.833,1182.88
787.02,1182.83
787.206,1182.97
787.393,1183
787.58,1182.74
787.767,1182.7
787.954,1182.47
788.14,1182.23
788.327,1182.17
788.514,1181.9
788.701,1181.7
788.887,1181.09
789.074,1181.25
789.261,1180.83
789.448,1180.53
789.634,1180.42
789.821,1180.08
790.008,1179.69
790.194,1179.54
790.381,1179.57
790.567,1179.14
790.754,1178.91
790.94,1178.88
791.127,1178.32
791.314,1178.2
791.5,1177.22
791.687,1176.97
791.873,1176.85
792.059,1176.72
792.246,1176.18
792.432,1175.91
792.619,1175.49
792.805,1175.08
792.992,1174.09
793.178,1173.17
793.364,1172.97
793.551,1172.75
793.737,1172.24
793.923,1171.99
794.11,1171.83
794.296,1171.74
794.482,1170.88
794.668,1170.07
794.855,1169.53
795.041,1169.03
795.227,1168.56
795.413,1168.31
795.599,1167.77
795.786,1167.16
795.972,1166.51
796.158,1166.12
796.344,1165.73
796.53,1165.46
796.716,1164.6
796.902,1164.17
797.088,1163.49
797.274,1162.74
797.46,1162.19
797.646,1161.65
797.832,1161.36
798.018,1161.07
798.204,1160.39
798.39,1159.81
798.576,1159.1
798.762,1158.78
798.948,1158.09
799.134,1158.14
799.32,1157.34
799.506,1156.88
799.692,1156.18
799.877,1155.88
800.063,1155.53
800.249,1155.11
800.435,1154.57
800.621,1154.09
800.806,1153.52
800.992,1152.66
801.178,1151.77
801.363,1150.62
801.549,1150.01
801.735,1149.51
801.92,1149.17
802.106,1148.58
802.292,1147.87
802.477,1147.31
802.663,1146.65
802.849,1146.04
803.034,1146.15
803.22,1145.81
803.405,1145.05
803.591,1145.14
803.776,1144.55
803.962,1144.09
804.147,1143.65
804.333,1143.11
804.518,1142.73
804.703,1141.92
804.889,1141.22
805.074,1140.92
805.26,1140.45
805.445,1139.84
805.63,1139.05
805.816,1139.24
806.001,1138.65
806.186,1138.08
806.372,1137.88
806.557,1137.28
806.742,1136.74
806.927,1136.45
807.113,1136.36
807.298,1135.89
807.483,1135.44
807.668,1135.07
807.853,1134.71
808.039,1134.18
808.224,1133.59
808.409,1133.15
808.594,1132.56
808.779,1132.31
808.964,1131.6
809.149,1131.02
809.334,1130.25
809.519,1129.76
809.704,1129.12
809.889,1128.65
810.074,1128.06
810.259,1127.71
810.444,1127.44
810.629,1126.82
810.814,1126.28
810.999,1126
811.184,1125.21
811.369,1124.51
811.554,1123.74
811.738,1123.33
811.923,1122.66
812.108,1121.81
812.293,1121.15
812.478,1120.89
812.662,1120.32
812.847,1119.77
813.032,1119.39
813.217,1118.65
813.401,1117.94
813.586,1117.66
813.771,1117.14
813.955,1116.4
814.14,1115.94
814.325,1115.31
814.509,1114.71
814.694,1114.25
814.878,1113.74
815.063,1113.11
815.248,1112.37
815.432,1111.64
815.617,1111.15
815.801,1110.82
815.986,1110.44
816.17,1109.77
816.355,1109.36
816.539,1108.81
816.723,1108.39
816.908,1107.6
817.092,1107.01
817.277,1106.53
817.461,1106.24
817.645,1105.76
817.83,1105.17
818.014,1104.74
818.198,1104.39
818.383,1103.93
818.567,1103.39
818.751,1102.7
818.935,1102.12
819.12,1101.93
819.304,1101.36
819.488,1100.99
819.672,1100.42
819.856,1099.53
820.041,1098.86
820.225,1098.02
820.409,1097.47
820.593,1097.03
820.777,1096.69
820.961,1096.1
821.145,1095.2
821.329,1094.84
821.513,1094.29
821.697,1093.51
821.881,1092.83
822.065,1092.43
822.249,1091.84
822.433,1091.13
822.617,1090.82
822.801,1090.41
822.985,1090.09
823.169,1089.3
823.353,1088.76
823.536,1088.46
823.72,1087.96
823.904,1087.14
824.088,1086.65
824.272,1085.8
824.456,1085.02
824.639,1084.52
824.823,1083.88
825.007,1082.94
825.19,1082.4
825.374,1081.86
825.558,1081.37
825.742,1080.65
825.925,1080.05
826.109,1079.58
826.292,1078.59
826.476,1077.89
826.66,1077.25
826.843,1076.46
827.027,1075.78
827.21,1075.3
827.394,1074.48
827.577,1073.32
827.761,1072.62
827.944,1071.76
828.128,1070.82
828.311,1070.05
828.495,1068.91
828.678,1068.02
828.862,1066.94
829.045,1066
829.228,1064.99
829.412,1063.95
829.595,1062.96
829.778,1062.24
829.962,1061.32
830.145,1060.64
830.328,1060.03
830.512,1058.77
830.695,1057.44
830.878,1056.43
831.061,1055.16
831.244,1053.82
831.428,1052.46
831.611,1051.46
831.794,1050.41
831.977,1049.27
832.16,1048.12
832.343,1046.95
832.526,1045.8
832.709,1044.47
832.893,1043.36
833.076,1042.34
833.259,1041.26
833.442,1040.16
833.625,1038.61
833.808,1037.68
833.991,1036.32
834.174,1035.32
834.356,1034.35
834.539,1032.92
834.722,1031.95
834.905,1030.44
835.088,1029.2
835.271,1027.91
835.454,1027.05
835.637,1025.93
835.819,1024.62
836.002,1023.39
836.185,1021.98
836.368,1021.11
836.551,1019.72
836.733,1018.11
836.916,1016.66
837.099,1015.06
837.281,1013.57
837.464,1012.49
837.647,1011.23
837.829,1009.96
838.012,1008.79
838.195,1007.58
838.377,1006.26
838.56,1005
838.742,1003.38
838.925,1001.98
839.107,1000.48
839.29,999.142
839.472,997.638
839.655,996.315
839.837,994.941
840.02,993.211
840.202,991.656
840.385,990.388
840.567,988.761
840.749,987.542
840.932,986.24
841.114,984.736
841.297,983.179
841.479,981.764
841.661,980.466
841.843,978.951
842.026,977.318
842.208,975.907
842.39,974.534
842.572,973.247
842.755,971.33
842.937,970.006
843.119,968.423
843.301,966.752
843.483,965.338
843.666,964.019
843.848,962.41
844.03,960.442
844.212,959.171
844.394,957.719
844.576,955.923
844.758,954.121
844.94,952.587
845.122,951.268
845.304,950.115
845.486,948.804
845.668,947.407
845.85,945.922
846.032,944.493
846.214,943.173
846.396,941.663
846.578,940.164
846.759,938.598
846.941,937.055
847.123,935.295
847.305,933.706
847.487,932.343
847.669,930.75
847.85,929.134
848.032,927.733
848.214,926.163
848.396,924.487
848.577,922.858
848.759,921.541
848.941,920.16
849.122,918.683
849.304,917.004
849.486,915.661
849.667,914.496
849.849,912.971
850.03,911.86
850.212,910.562
850.394,908.948
850.575,907.231
850.757,906.029
850.938,904.571
851.12,903.131
851.301,902.058
851.483,900.654
851.664,899.053
851.845,897.606
852.027,896.243
852.208,894.947
852.39,893.353
852.571,891.888
852.752,890.406
852.934,889.441
853.115,888.058
853.296,886.811
853.478,885.78
853.659,884.535
853.84,883.142
854.021,881.784
854.203,880.296
854.384,879.069
854.565,877.804
854.746,876.472
854.927,875.283
855.108,874.055
855.29,873.029
855.471,871.69
855.652,870.726
855.833,869.45
856.014,868.31
856.195,866.871
856.376,865.789
856.557,864.908
856.738,863.916
856.919,862.897
857.1,861.648
857.281,860.212
857.462,859.004
857.643,857.474
857.824,856.324
858.005,855.133
858.185,854.023
858.366,853.123
858.547,852.061
858.728,850.965
858.909,849.988
859.09,848.987
859.27,847.916
859.451,846.996
859.632,845.744
859.813,844.657
859.993,843.596
860.174,842.86
860.355,841.739
860.535,840.691
860.716,839.426
860.897,838.589
861.077,837.612
861.258,836.463
861.438,835.525
861.619,834.877
861.8,833.961
861.98,832.814
862.161,831.568
862.341,830.941
862.522,830.088
862.702,828.912
862.883,828.328
863.063,827.477
863.243,826.702
863.424,825.932
863.604,824.941
863.785,823.672
863.965,822.929
864.145,822.187
864.326,821.152
864.506,820.236
864.686,819.561
864.867,818.816
865.047,818.042
865.227,817.42
865.407,816.959
865.588,816.189
865.768,815.243
865.948,814.303
866.128,813.479
866.308,812.378
866.488,811.851
866.669,811.319
866.849,810.352
867.029,809.905
867.209,809.178
867.389,808.413
867.569,807.873
867.749,806.978
867.929,806.412
868.109,805.693
868.289,805.208
868.469,804.382
868.649,803.754
868.829,802.972
869.009,802.243
869.189,801.565
869.369,800.882
869.548,800.04
869.728,799.455
869.908,798.712
870.088,797.85
870.268,797.348
870.448,796.849
870.627,796.048
870.807,795.526
870.987,795.078
871.167,794.319
871.346,793.772
871.526,792.892
871.706,792.362
871.885,791.643
872.065,791.024
872.245,790.102
872.424,789.396
872.604,788.952
872.783,788.012
872.963,787.347
873.142,786.761
873.322,786.418
873.501,785.902
873.681,785.215
873.86,784.219
874.04,783.699
874.219,783.09
874.399,782.539
874.578,781.853
874.758,781.399
874.937,780.618
875.116,780.321
875.296,779.541
875.475,779.149
875.654,778.523
875.834,778.168
876.013,777.401
876.192,777.027
876.372,776.52
876.551,775.853
876.73,775.296
876.909,774.915
877.088,774.202
877.268,773.663
877.447,772.901
877.626,772.595
877.805,771.787
877.984,771.382
878.163,771.076
878.342,770.449
878.521,769.859
878.7,769.093
878.879,768.588
879.059,768.189
879.238,767.551
879.417,766.847
879.595,766.404
879.774,765.83
879.953,765.064
880.132,764.333
880.311,763.743
880.49,763.161
880.669,762.405
880.848,761.878
881.027,761.387
881.205,760.668
881.384,759.748
881.563,758.839
881.742,758.126
881.921,757.397
882.099,757.146
882.278,756.549
882.457,755.888
882.635,755.257
882.814,754.825
882.993,754.37
883.171,753.797
883.35,753.021
883.529,752.592
883.707,752.104
883.886,752.006
884.064,751.505
884.243,750.904
884.422,750.202
884.6,749.751
884.779,749.417
884.957,748.501
885.136,747.974
885.314,747.252
885.492,746.906
885.671,746.343
885.849,745.555
886.028,744.831
886.206,743.821
886.384,743.127
886.563,742.477
886.741,742.265
886.919,741.575
887.098,740.998
887.276,740.332
887.454,739.694
887.632,739.032
887.811,738.244
887.989,737.488
888.167,736.884
888.345,736.472
888.523,735.788
888.702,735.099
888.88,734.414
889.058,733.379
889.236,732.723
889.414,732.022
889.592,731.186
889.77,730.436
889.948,729.861
890.126,729.277
890.304,728.584
890.482,727.878
890.66,727.189
890.838,726.507
891.016,725.65
891.194,724.934
891.372,723.934
891.55,723.29
891.728,722.205
891.905,721.354
892.083,720.423
892.261,719.735
892.439,719.136
892.617,718.211
892.794,717.143
892.972,716.316
893.15,715.64
893.328,715.166
893.505,714.114
893.683,713.574
893.861,712.817
894.038,712.069
894.216,711.406
894.394,710.572
894.571,709.805
894.749,709.023
894.926,707.959
895.104,707.049
895.281,706.042
895.459,704.881
895.637,704.046
895.814,703.073
895.992,702.387
896.169,701.004
896.346,699.969
896.524,699.12
896.701,698.161
896.879,697.074
897.056,696.018
897.233,694.931
897.411,694.213
897.588,693.149
897.765,691.767
897.943,690.713
898.12,689.863
898.297,688.672
898.475,687.319
898.652,686.618
898.829,685.434
899.006,684.137
899.183,682.687
899.361,681.426
899.538,680.302
899.715,679.369
899.892,678.458
900.069,677.367
900.246,676.251
900.423,675.185
900.6,673.687
900.777,672.67
900.954,671.589
901.131,670.46
901.308,668.988
901.485,667.735
901.662,666.673
901.839,665.669
902.016,664.508
902.193,663.273
902.37,661.956
902.547,660.66
902.724,659.538
902.9,658.168
903.077,657.006
903.254,655.877
903.431,654.753
903.608,653.612
903.784,652.253
903.961,650.987
904.138,649.342
904.315,648.429
904.491,646.919
904.668,645.804
904.845,644.449
905.021,643.078
905.198,641.981
905.375,640.701
905.551,639.46
905.728,638.135
905.904,637.01
906.081,635.679
906.257,634.161
906.434,632.955
906.61,631.393
906.787,629.945
906.963,628.532
907.14,627.169
907.316,625.679
907.493,624.267
907.669,622.73
907.845,621.386
908.022,620.464
908.198,619.186
908.374,617.463
908.551,616.111
908.727,615.085
908.903,613.836
909.08,612.335
909.256,611.006
909.432,609.855
909.608,608.688
909.785,607.248
909.961,605.824
910.137,604.39
910.313,603.24
910.489,601.994
910.665,600.659
910.841,599.091
911.018,597.938
911.194,596.303
911.37,595.003
911.546,593.52
911.722,592.245
911.898,590.873
912.074,589.497
912.25,588.071
912.426,586.611
912.602,585.188
912.777,583.729
912.953,582.348
913.129,581.348
913.305,579.998
913.481,578.715
913.657,577.31
913.833,575.789
914.008,574.66
914.184,573.199
914.36,572.138
914.536,570.738
914.712,569.143
914.887,567.857
915.063,566.512
915.239,565.475
915.414,564.092
915.59,562.747
915.766,561.608
915.941,560.615
916.117,559.161
916.292,558.133
916.468,557.045
916.644,555.884
916.819,554.627
916.995,553.795
917.17,552.425
917.346,551.229
917.521,550.049
917.697,548.443
917.872,547.157
918.048,545.88
918.223,544.453
918.398,543.417
918.574,542.07
918.749,541.141
918.924,539.957
919.1,538.442
919.275,537.088
919.45,535.524
919.626,534.317
919.801,532.953
919.976,531.664
920.151,530.468
920.327,528.986
920.502,527.774
920.677,526.41
920.852,525.312
921.027,523.739
921.202,522.385
921.378,521.144
921.553,519.986
921.728,518.973
921.903,517.769
922.078,516.458
922.253,514.909
922.428,513.736
922.603,512.646
922.778,511.565
922.953,510.278
923.128,508.957
923.303,507.79
923.478,507.015
923.652,506.074
923.827,504.668
924.002,503.508
924.177,502.211
924.352,500.921
924.527,499.768
924.702,498.577
924.876,497.258
925.051,495.891
925.226,494.672
925.401,493.173
925.575,492.002
925.75,491.104
925.925,489.808
926.099,488.463
926.274,487.229
926.449,486.191
926.623,485.042
926.798,483.829
926.972,482.862
927.147,482.02
927.322,480.766
927.496,479.692
927.671,478.613
927.845,477.292
928.02,475.934
928.194,475.03
928.368,473.749
928.543,472.343
928.717,470.899
928.892,469.642
929.066,468.374
929.24,467.151
929.415,465.747
929.589,464.485
929.763,463.202
929.938,461.904
930.112,460.707
930.286,459.712
930.461,458.695
930.635,457.393
930.809,456.203
930.983,455.012
931.157,453.811
931.332,452.569
931.506,451.583
931.68,450.469
931.854,449.456
932.028,448.324
932.202,447.287
932.376,446.39
932.55,445.345
932.724,443.732
932.898,442.523
933.072,441.66
933.246,440.929
933.42,439.641
933.594,438.376
933.768,437.311
933.942,435.987
934.116,434.841
934.29,433.777
934.464,432.91
934.638,432.015
934.811,430.98
934.985,429.766
935.159,428.323
935.333,427.174
935.507,426.091
935.68,424.765
935.854,423.774
936.028,422.649
936.201,421.678
936.375,420.841
936.549,419.89
936.722,418.914
936.896,417.777
937.07,416.534
937.243,415.799
937.417,415.001
937.59,413.816
937.764,412.61
937.938,411.668
938.111,410.503
938.285,409.624
938.458,408.402
938.631,407.424
938.805,406.467
938.978,405.512
939.152,404.6
939.325,403.98
939.499,403.03
939.672,402.047
939.845,400.993
940.019,399.989
940.192,399.139
940.365,397.863
940.538,397.127
940.712,396.223
940.885,395.399
941.058,394.739
941.231,393.912
941.405,393.092
941.578,391.934
941.751,390.956
941.924,390.111
942.097,389.097
942.27,388.192
942.443,387.685
942.617,386.758
942.79,386.094
942.963,385.065
943.136,384.008
943.309,383.055
943.482,382.21
943.655,381.446
943.828,380.263
944.001,379.336
944.173,378.438
944.346,377.655
944.519,376.498
944.692,375.718
944.865,374.725
945.038,374.085
945.211,373.191
945.383,372.191
945.556,371.12
945.729,370.363
945.902,369.486
946.075,368.545
946.247,367.763
946.42,367.001
946.593,366.116
946.765,365.202
946.938,364.272
947.111,363.562
947.283,362.868
947.456,361.731
947.628,360.675
947.801,360.252
947.974,359.088
948.146,358.004
948.319,356.919
948.491,356.493
948.664,355.525
948.836,354.697
949.009,353.933
949.181,353.09
949.353,352.123
949.526,351.148
949.698,350.44
949.871,349.711
950.043,348.823
950.215,347.723
950.388,346.771
950.56,346.345
950.732,345.349
950.904,344.49
951.077,343.859
951.249,343.059
951.421,342.233
951.593,341.541
951.766,340.792
951.938,340.099
952.11,339.369
952.282,338.552
952.454,337.603
952.626,337.149
952.798,336.487
952.97,335.593
953.142,334.911
953.314,333.72
953.487,332.875
953.659,332.059
953.83,331.314
954.002,330.509
954.174,329.633
954.346,328.676
954.518,327.73
954.69,327.059
954.862,326.506
955.034,325.815
955.206,325.217
955.378,324.546
955.549,323.864
955.721,322.784
955.893,322.017
956.065,321.221
956.236,320.705
956.408,320.133
956.58,319.245
956.752,318.374
956.923,317.899
957.095,317.184
957.267,316.378
957.438,315.362
957.61,314.495
957.781,313.597
957.953,312.811
958.125,312.103
958.296,311.116
958.468,310.271
958.639,309.483
958.811,308.85
958.982,308.419
959.154,307.748
959.325,306.987
959.496,306.092
959.668,305.284
959.839,304.613
960.011,303.985
960.182,303.59
960.353,302.767
960.525,301.713
960.696,300.8
960.867,300.316
961.038,299.693
961.21,299.189
961.381,298.271
961.552,297.659
961.723,296.762
961.895,295.746
962.066,294.818
962.237,294.337
962.408,293.583
962.579,292.839
962.75,292.201
962.921,291.541
963.092,291.002
963.263,290.271
963.434,289.535
963.605,288.806
963.776,287.997
963.947,287.285
964.118,286.524
964.289,285.68
964.46,284.96
964.631,284.208
964.802,283.369
964.973,282.641
965.144,281.744
965.315,281.017
965.485,280.177
965.656,279.424
965.827,278.744
965.998,277.742
966.169,276.772
966.339,276.414
966.51,275.542
966.681,275.13
966.851,274.555
967.022,273.517
967.193,272.711
967.363,272.391
967.534,271.46
967.705,270.849
967.875,269.93
968.046,269.277
968.216,268.566
968.387,268.237
968.557,267.368
968.728,266.795
968.898,266.381
969.069,265.687
969.239,264.957
969.41,264.429
969.58,263.828
969.751,263.195
969.921,262.846
970.091,262.215
970.262,261.85
970.432,261.418
970.602,260.864
970.773,260.151
970.943,259.358
971.113,258.963
971.283,258.193
971.454,257.455
971.624,257.176
971.794,256.395
971.964,255.737
972.134,255.024
972.305,254.524
972.475,253.953
972.645,253.353
972.815,252.753
972.985,252.343
973.155,251.483
973.325,250.955
973.495,250.348
973.665,249.763
973.835,248.895
974.005,248.001
974.175,247.535
974.345,246.691
974.515,246.027
974.685,245.359
974.855,244.874
975.024,244.343
975.194,243.205
975.364,242.236
975.534,241.306
975.704,240.426
975.874,239.693
976.043,239.17
976.213,238.491
976.383,237.756
976.553,237.19
976.722,236.988
976.892,236.153
977.062,235.545
977.231,234.549
977.401,234.252
977.57,233.501
977.74,232.916
977.91,232.199
978.079,231.625
978.249,230.959
978.418,230.297
978.588,229.634
978.757,229.078
978.927,228.724
979.096,227.822
979.266,227.371
979.435,226.688
979.604,226.292
979.774,225.837
979.943,225.294
980.113,224.665
980.282,223.973
980.451,223.184
980.621,222.683
980.79,221.871
980.959,221.294
981.128,220.717
981.298,219.996
981.467,219.207
981.636,218.483
981.805,218.112
981.974,217.672
982.143,216.671
982.313,215.943
982.482,215.248
982.651,214.766
982.82,213.888
982.989,213.362
983.158,212.71
983.327,211.981
983.496,211.528
983.665,210.849
983.834,210.232
984.003,209.589
984.172,208.89
984.341,208.394
984.51,207.746
984.679,207.179
984.847,206.258
985.016,205.668
985.185,204.86
985.354,204.019
985.523,203.351
985.692,202.861
985.86,202.183
986.029,201.603
986.198,200.877
986.366,200.296
986.535,199.557
986.704,199.122
986.873,198.411
987.041,197.709
987.21,197.176
987.378,196.668
987.547,196.352
987.716,195.691
987.884,194.646
988.053,194.121
988.221,193.624
988.39,193.31
988.558,192.712
988.727,191.958
988.895,191.261
989.064,190.512
989.232,189.789
989.4,189.15
989.569,188.536
989.737,188.071
989.905,187.674
990.074,187.146
990.242,186.612
990.41,185.689
990.579,184.881
990.747,184.246
990.915,183.724
991.083,182.908
991.252,182.257
991.42,181.773
991.588,181.369
991.756,181.053
991.924,180.568
992.092,180.121
992.261,179.745
992.429,179.219
992.597,178.735
992.765,178.154
992.933,177.502
993.101,176.605
993.269,176.084
993.437,175.428
993.605,174.928
993.773,174.55
993.941,173.666
994.109,173.223
994.277,172.571
994.444,171.909
994.612,171.385
994.78,171.125
994.948,170.372
995.116,169.777
995.284,168.878
995.451,168.364
995.619,167.818
995.787,167.209
995.955,166.795
996.122,166.491
996.29,166.055
996.458,165.571
996.625,165.076
996.793,164.526
996.961,163.878
997.128,163.152
997.296,162.685
997.463,162.163
997.631,161.711
997.798,161.351
997.966,160.972
998.133,160.677
998.301,160.454
998.468,160.148
998.636,159.858
998.803,159.206
998.971,158.806
999.138,158.323
999.305,157.915
999.473,157.814
999.64,157.503
999.807,157.075
999.975,156.835
1000.14,156.409
1000.31,155.682
1000.48,155.546
1000.64,154.869
1000.81,154.211
1000.98,153.98
1001.15,153.678
1001.31,152.931
1001.48,152.663
1001.65,152.036
1001.81,151.392
1001.98,151.042
1002.15,150.792
1002.32,150.439
1002.48,150.136
1002.65,149.547
1002.82,148.984
1002.98,148.477
1003.15,148.059
1003.32,147.492
1003.48,147.084
1003.65,146.779
1003.82,146.019
1003.98,145.593
1004.15,145.024
1004.32,144.477
1004.49,143.682
1004.65,143.355
1004.82,142.855
1004.99,142.229
1005.15,142.153
1005.32,141.71
1005.49,141.01
1005.65,140.606
1005.82,139.926
1005.99,139.544
1006.15,139.015
1006.32,138.167
1006.49,137.833
1006.65,137.264
1006.82,136.685
1006.99,136.115
1007.15,135.718
1007.32,135.059
1007.49,134.379
1007.65,134.044
1007.82,133.595
1007.98,133.44
1008.15,133.152
1008.32,132.864
1008.48,132.506
1008.65,132.187
1008.82,131.909
1008.98,131.674
1009.15,131.538
1009.32,131.284
1009.48,130.802
1009.65,130.649
1009.81,130.323
1009.98,129.979
1010.15,129.568
1010.31,129.046
1010.48,128.233
1010.65,127.936
1010.81,127.605
1010.98,127.409
1011.14,126.744
1011.31,126.489
1011.48,126.087
1011.64,125.706
1011.81,125.095
1011.97,124.83
1012.14,124.362
1012.31,123.841
1012.47,123.27
1012.64,122.629
1012.8,122.175
1012.97,121.627
1013.14,120.922
1013.3,120.71
1013.47,120.234
1013.63,119.87
1013.8,119.34
1013.97,118.987
1014.13,118.907
1014.3,118.304
1014.46,117.756
1014.63,117.095
1014.79,116.858
1014.96,116.733
1015.13,116.574
1015.29,116.222
1015.46,115.698
1015.62,115.324
1015.79,114.836
1015.95,114.619
1016.12,114.298
1016.29,113.885
1016.45,113.616
1016.62,113.062
1016.78,112.766
1016.95,112.448
1017.11,112.086
1017.28,111.786
1017.44,111.528
1017.61,111.424
1017.78,111.161
1017.94,110.727
1018.11,110.624
1018.27,110.241
1018.44,109.859
1018.6,109.564
1018.77,109.138
1018.93,108.847
1019.1,108.265
1019.26,107.54
1019.43,107.187
1019.59,106.824
1019.76,106.287
1019.92,105.832
1020.09,105.69
1020.25,105.361
1020.42,105.001
1020.59,104.605
1020.75,104.063
1020.92,103.765
1021.08,103.288
1021.25,103.209
1021.41,103.419
1021.58,103.271
1021.74,103.041
1021.91,102.468
1022.07,102.176
1022.24,101.802
1022.4,101.68
1022.57,101.257
1022.73,100.971
1022.89,100.46
1023.06,100.34
1023.22,99.8716
1023.39,99.6404
1023.55,99.3494
1023.72,99.083
1023.88,98.9422
1024.05,98.7123
1024.21,98.5255
1024.38,98.2604
1024.54,98.1155
1024.71,98.0189
1024.87,97.5783
1025.04,97.0622
1025.2,96.5552
1025.37,96.416
1025.53,96.2387
1025.7,95.8701
1025.86,95.4022
1026.02,94.8263
1026.19,94.5557
1026.35,94.4479
1026.52,94.229
1026.68,94.0224
1026.85,93.7367
1027.01,93.7703
1027.18,93.5107
1027.34,93.5729
1027.5,94.9131
1027.67,77.3825
1027.83,116.171
1028,86.3526
1028.16,81.3556
1028.33,71.0338
1028.49,105.276
1028.65,77.0548
1028.82,67.839
1028.98,72.0168
1029.15,68.0847
1029.31,50.677
1029.48,68.5762
1029.64,55.5102
1029.8,147.505
1029.97,95.1998
1030.13,124.732
1030.3,55.0187
1030.46,70.0917
1030.62,114.574
1030.79,64.5213
1030.95,33.4331
1031.12,21.6777
1031.28,94.995
1031.44,118.751
1031.61,119.366
1031.77,71.4434
1031.94,62.6781
1032.1,97.6574
1032.26,61.5312
1032.43,76.85
1032.59,69.7231
1032.76,78.9799
1032.92,121.25
1033.08,63.2106
1033.25,82.912
1033.41,97.043
1033.57,97.6983
1033.74,70.5013
1033.9,79.7991
1034.07,133.825
1034.23,114.574
1034.39,41.9117
1034.56,127.558
1034.72,59.1556
1034.88,81.6423
1035.05,80.4135
1035.21,54.2405
1035.37,77.2596
1035.54,47.0726
1035.7,33.2693
1035.86,91.9231
1036.03,77.9559
1036.19,69.0268
1036.35,42.3213
1036.52,94.4216
1036.68,100.033
1036.84,84.4685
1037.01,67.0198
1037.17,43.7958
1037.33,79.0209
1037.5,65.8729
1037.66,86.8441
1037.82,125.223
1037.99,113.263
1038.15,95.0769
1038.31,67.2655
1038.48,52.9707
1038.64,32.8597
1038.8,88.5644
1038.97,33.474
1039.13,80.1268
1039.29,40.56
1039.46,98.6814
1039.62,69.5593
1039.78,74.9659
1039.95,70.2556
1040.11,71.1157
1040.27,82.2157
1040.43,79.3076
1040.6,67.3475
1040.76,65.0128
1040.92,73.4504
1041.09,81.2327
1041.25,66.815
1041.41,54.2405
1041.57,66.8969
1041.74,102.859
1041.9,95.2817
1042.06,69.7231
1042.23,50.3084
1042.39,49.3253
1042.55,77.3006
1042.71,104.457
1042.88,62.5962
1043.04,81.8061
1043.2,49.4072
1043.36,133.333
1043.53,79.1847
1043.69,87.2947
EndSpectrumFile,BASELINE
SpectrumFile,RAW DATA
Version,1.000000
Location,home
Customer,rudolf
SampleInfo,
GPSData,51.118477,-114.185388,1161.000000,70032,71211
SystemTime,2011,12,7,0,3,39,718
Pipe km,0.000000
Pre-Dilution Factor,1.000000
Freeform Info,
Concentration,1079.036124
CalibrationName,USB4000 dark
Unique Calibration File ID,20110323-0226570968-TESTBOX2-7E963C-00008931
CalibrationWavelength,700.000000
CalibrationType,2,0.000000,0.616679
CalibrationRSquared,1.000000
CalibrationConcentrations [ppm],2,0.000000,10.000000
CalibrationCounts,2,0.000000,16.215900
CalibrationWarnLow,0.000000
CalibrationWarnHigh,10.000000
CalibrationErrorLow,0.000000
CalibrationErrorHigh,0.000000
Spectrometer Name,USB4000
Spectrometer Serial,USB4H02759
IntegrationTime [ms],50.000000
AveragedSpectra,50
BoxcarWidth,100
WavelengthRange [nm],346.775360,1043.690197
IntensityRange [counts],-127.649892,5477.371182
WavelengthCount,3648
Wavelength [nm],Intensity [counts]
346.775,-118.352
346.991,-118.352
347.206,-118.352
347.421,-127.65
347.637,-116.386
347.852,93.8174
348.067,47.9839
348.282,73.7064
348.498,64.1219
348.713,70.1429
348.928,96.6436
349.143,99.1422
349.358,45.1577
349.574,58.961
349.789,42.5363
350.004,116.181
350.219,52.3256
350.434,79.6865
350.649,77.2699
350.864,67.3987
351.079,87.9603
351.295,104.385
351.51,39.9559
351.725,58.8791
351.94,25.0467
352.155,59.6573
352.37,100.207
352.585,58.6333
352.8,104.631
353.015,37.9898
353.23,112.044
353.445,47.8201
353.66,63.1389
353.875,90.8274
354.09,107.498
354.305,45.8131
354.52,73.6654
354.735,42.3315
354.949,87.1411
355.164,110.488
355.379,49.1308
355.594,82.7994
355.809,105.819
356.024,85.5437
356.239,74.6894
356.453,103.115
356.668,65.2278
356.883,83.4957
357.098,110.734
357.313,75.6315
357.527,85.216
357.742,56.9131
357.957,58.2647
358.172,69.7743
358.386,80.3418
358.601,87.1411
358.816,111.184
359.03,46.3865
359.245,73.9931
359.46,120.646
359.674,68.5046
359.889,39.0138
360.104,96.1112
360.318,97.34
360.533,80.0141
360.748,50.0319
360.962,89.6806
361.177,56.6673
361.391,86.7315
361.606,77.9252
361.82,73.9112
362.035,85.5027
362.25,66.006
362.464,67.1529
362.679,145.959
362.893,77.0651
363.108,87.2639
363.322,97.8724
363.536,63.6713
363.751,63.5894
363.965,73.6245
364.18,72.5595
364.394,86.199
364.609,61.8282
364.823,83.0861
365.037,107.539
365.252,76.4097
365.466,58.7153
365.68,88.3699
365.895,68.8322
366.109,79.8093
366.323,74.4846
366.538,72.3547
366.752,48.4754
366.966,70.4706
367.181,60.9271
367.395,49.6632
367.609,54.906
367.823,121.342
368.038,92.5887
368.252,79.0054
368.466,80.0058
368.68,81.1284
368.894,82.1082
369.109,83.0402
369.323,84.2588
369.537,84.1898
369.751,84.4001
369.965,84.5515
370.179,84.7697
370.393,85.0002
370.607,85.0631
370.822,85.3588
371.036,85.7776
371.25,85.9681
371.464,86.3217
371.678,86.3048
371.892,86.607
372.106,86.5841
372.32,86.9124
372.534,87.1211
372.748,87.3893
372.962,87.4569
373.176,87.7773
373.39,88.1094
373.604,88.5718
373.818,88.8838
374.031,88.8575
374.245,89.1361
374.459,89.1568
374.673,89.4006
374.887,89.422
375.101,89.7757
375.315,90.08
375.529,90.1847
375.742,90.2171
375.956,90.4453
376.17,90.5611
376.384,90.8914
376.598,90.8798
376.811,90.8539
377.025,91.411
377.239,91.7632
377.453,91.9517
377.666,92.2759
377.88,92.3574
378.094,92.8638
378.307,93.2293
378.521,93.4969
378.735,93.4692
378.948,93.7372
379.162,93.9823
379.376,94.3075
379.589,94.8808
379.803,95.1626
380.016,95.1793
380.23,95.5009
380.444,95.6779
380.657,96.0553
380.871,96.4136
381.084,96.4315
381.298,96.524
381.511,96.7127
381.725,97.1665
381.938,97.5523
382.152,97.763
382.365,98.0566
382.579,98.2123
382.792,98.5231
383.006,98.7656
383.219,99.0651
383.433,99.4211
383.646,99.7178
383.859,99.9318
384.073,100.284
384.286,100.076
384.5,100.329
384.713,100.644
384.926,100.827
385.14,101.475
385.353,101.842
385.566,102.174
385.779,102.49
385.993,102.758
386.206,103.213
386.419,103.426
386.633,103.414
386.846,103.942
387.059,104.357
387.272,104.653
387.485,105.217
387.699,105.374
387.912,105.787
388.125,106.211
388.338,107.041
388.551,107.522
388.764,107.981
388.978,108.428
389.191,108.79
389.404,109.053
389.617,109.233
389.83,109.488
390.043,109.975
390.256,110.08
390.469,110.575
390.682,110.802
390.895,111.243
391.108,111.392
391.321,111.781
391.534,111.776
391.747,112.223
391.96,112.101
392.173,112.63
392.386,113.389
392.599,113.908
392.812,114.63
393.025,115.042
393.238,115.326
393.451,115.728
393.663,115.947
393.876,116.632
394.089,116.734
394.302,117.317
394.515,117.752
394.728,118.086
394.941,118.576
395.153,118.785
395.366,119.008
395.579,119.527
395.792,119.733
396.004,120.332
396.217,120.68
396.43,121.134
396.643,121.849
396.855,122.098
397.068,122.657
397.281,123.163
397.493,123.516
397.706,123.876
397.919,124.319
398.131,125
398.344,125.499
398.557,125.853
398.769,125.81
398.982,126.472
399.194,126.867
399.407,127.5
399.619,128.075
399.832,128.647
400.045,129.307
400.257,130.295
400.47,130.865
400.682,131.699
400.895,132.392
401.107,133.04
401.319,133.624
401.532,134.093
401.744,134.702
401.957,135.39
402.169,135.708
402.382,136.34
402.594,136.903
402.806,137.72
403.019,138.522
403.231,138.862
403.444,139.349
403.656,139.998
403.868,140.81
404.081,141.697
404.293,142.583
404.505,143.048
404.717,143.608
404.93,144.518
405.142,144.997
405.354,145.798
405.566,146.642
405.779,147.265
405.991,147.929
406.203,148.712
406.415,149.274
406.627,149.947
406.84,150.624
407.052,151.932
407.264,152.301
407.476,152.968
407.688,154.034
407.9,154.816
408.112,155.698
408.324,156.8
408.537,157.636
408.749,158.78
408.961,159.765
409.173,160.773
409.385,161.518
409.597,161.943
409.809,162.737
410.021,163.569
410.233,164.571
410.445,165.297
410.657,166.648
410.869,167.661
411.081,168.469
411.292,169.601
411.504,170.581
411.716,171.825
411.928,172.983
412.14,173.882
412.352,174.938
412.564,176.02
412.776,176.923
412.988,177.931
413.199,178.643
413.411,179.51
413.623,180.282
413.835,181.143
414.047,182.232
414.258,183.421
414.47,184.578
414.682,185.343
414.894,186.482
415.105,187.268
415.317,188.161
415.529,189.072
415.74,190.064
415.952,191.295
416.164,192.293
416.375,193.367
416.587,194.579
416.799,195.915
417.01,197.101
417.222,198.359
417.433,199.784
417.645,200.842
417.857,201.995
418.068,203.227
418.28,204.582
418.491,205.734
418.703,207.172
418.914,208.707
419.126,210.186
419.337,211.633
419.549,212.688
419.76,213.774
419.972,214.966
420.183,216.4
420.394,217.541
420.606,218.983
420.817,219.945
421.029,221.111
421.24,222.428
421.451,223.804
421.663,225.427
421.874,226.852
422.085,228.108
422.297,229.222
422.508,230.651
422.719,232.552
422.931,233.978
423.142,235.47
423.353,237.091
423.565,238.645
423.776,240.114
423.987,242.003
424.198,243.696
424.409,244.94
424.621,246.465
424.832,248.043
425.043,249.645
425.254,251.402
425.465,252.987
425.676,254.716
425.888,256.383
426.099,257.801
426.31,259.341
426.521,260.961
426.732,262.456
426.943,264.17
427.154,265.873
427.365,267.293
427.576,268.977
427.787,270.283
427.998,271.826
428.209,273.518
428.42,275.301
428.631,277.103
428.842,278.689
429.053,280.269
429.264,282.273
429.475,283.87
429.686,285.634
429.897,287.398
430.108,288.893
430.319,291.088
430.529,292.72
430.74,294.386
430.951,296.081
431.162,297.797
431.373,299.437
431.584,301.407
431.794,303.411
432.005,305.151
432.216,307.126
432.427,308.912
432.637,310.88
432.848,313.159
433.059,314.831
433.27,316.563
433.48,318.623
433.691,320.59
433.902,322.827
434.112,324.629
434.323,326.617
434.534,328.723
434.744,330.614
434.955,332.185
435.166,333.901
435.376,335.65
435.587,337.783
435.797,339.78
436.008,341.596
436.218,344.071
436.429,346.177
436.64,348.502
436.85,350.364
437.061,352.339
437.271,354.718
437.482,356.847
437.692,359.336
437.902,361.427
438.113,363.427
438.323,365.595
438.534,367.445
438.744,369.463
438.955,371.8
439.165,373.906
439.375,375.903
439.586,377.745
439.796,379.938
440.006,381.987
440.217,384.443
440.427,386.675
440.637,388.769
440.848,390.702
441.058,393.091
441.268,395.598
441.479,397.745
441.689,400.123
441.899,402.457
442.109,404.571
442.319,407.014
442.53,409.291
442.74,411.374
442.95,414.11
443.16,416.333
443.37,418.927
443.58,421.184
443.791,424.015
444.001,426.529
444.211,428.979
444.421,431.587
444.631,434.482
444.841,437.192
445.051,439.643
445.261,441.915
445.471,445.458
445.681,448.293
445.891,451.042
446.101,453.644
446.311,456.294
446.521,458.693
446.731,461.153
446.941,464.06
447.151,467.154
447.361,469.62
447.571,472.162
447.781,475.201
447.991,477.759
448.201,480.522
448.41,483.706
448.62,486.402
448.83,489.178
449.04,491.779
449.25,494.776
449.46,497.423
449.669,500.249
449.879,503.028
450.089,505.761
450.299,509.003
450.508,511.728
450.718,514.674
450.928,517.308
451.138,520.102
451.347,523.185
451.557,526.169
451.767,529.189
451.976,532.326
452.186,535.62
452.396,538.486
452.605,541.364
452.815,544.582
453.025,547.349
453.234,550.4
453.444,553.406
453.653,556.385
453.863,559.306
454.072,562.232
454.282,565.41
454.491,568.451
454.701,571.71
454.911,574.782
455.12,578.087
455.329,581.261
455.539,584.714
455.748,588.031
455.958,591.161
456.167,594.632
456.377,597.873
456.586,600.862
456.795,604.007
457.005,607.502
457.214,611.302
457.424,614.746
457.633,618.23
457.842,621.681
458.052,625.221
458.261,628.53
458.47,632.053
458.679,635.308
458.889,638.677
459.098,642.197
459.307,645.644
459.517,649.143
459.726,652.562
459.935,656.373
460.144,659.941
460.353,663.513
460.563,667.203
460.772,670.858
460.981,674.7
461.19,678.36
461.399,681.911
461.608,685.705
461.817,689.955
462.026,694.009
462.236,697.907
462.445,701.683
462.654,705.87
462.863,709.68
463.072,713.901
463.281,717.938
463.49,721.924
463.699,726.21
463.908,730.215
464.117,733.989
464.326,738.388
464.535,742.842
464.744,747.24
464.952,751.088
465.161,755.113
465.37,759.3
465.579,763.393
465.788,767.47
465.997,771.934
466.206,776.241
466.415,780.802
466.623,785.479
466.832,789.848
467.041,794.478
467.25,799.062
467.459,803.336
467.667,807.83
467.876,812.718
468.085,817.648
468.294,822.366
468.502,827.191
468.711,832.355
468.92,837.353
469.128,842.576
469.337,847.387
469.546,852.291
469.754,857.457
469.963,862.485
470.172,867.862
470.38,872.989
470.589,877.661
470.798,882.787
471.006,887.874
471.215,893.04
471.423,898.326
471.632,903.384
471.84,908.636
472.049,914.002
472.257,919.418
472.466,924.743
472.674,930.109
472.883,935.717
473.091,940.87
473.3,946.374
473.508,952.001
473.716,957.504
473.925,962.863
474.133,968.398
474.342,973.843
474.55,979.673
474.758,985.61
474.967,990.775
475.175,996.846
475.383,1002.76
475.592,1008.44
475.8,1014.03
476.008,1019.39
476.217,1025.23
476.425,1031.11
476.633,1036.77
476.841,1042.43
477.05,1048.42
477.258,1054.76
477.466,1060.62
477.674,1066.46
477.882,1072.55
478.091,1078.68
478.299,1084.51
478.507,1090.45
478.715,1096.65
478.923,1102.57
479.131,1108.89
479.339,1114.79
479.547,1120.84
479.755,1126.73
479.963,1133.06
480.171,1139.27
480.38,1145.36
480.588,1151.72
480.796,1157.92
481.004,1163.58
481.212,1169.63
481.42,1176.05
481.627,1182.57
481.835,1189.02
482.043,1195.43
482.251,1201.51
482.459,1207.68
482.667,1214.01
482.875,1220.28
483.083,1226.85
483.291,1233.13
483.499,1239.42
483.706,1245.65
483.914,1251.93
484.122,1258.17
484.33,1264.48
484.538,1270.82
484.745,1277
484.953,1282.85
485.161,1288.93
485.369,1295.2
485.576,1301.89
485.784,1307.88
485.992,1314.21
486.199,1320.4
486.407,1326.63
486.615,1332.74
486.822,1338.74
487.03,1344.89
487.238,1351.14
487.445,1355.98
487.653,1361.95
487.861,1368.14
488.068,1374.05
488.276,1380.09
488.483,1386.27
488.691,1392.4
488.898,1398.52
489.106,1404.27
489.313,1410.56
489.521,1416.76
489.728,1422.33
489.936,1428.36
490.143,1434.6
490.351,1440.22
490.558,1446.35
490.766,1452.31
490.973,1458.34
491.18,1463.94
491.388,1469.73
491.595,1475.69
491.802,1481.8
492.01,1487.54
492.217,1492.91
492.424,1499.01
492.632,1504.55
492.839,1510.72
493.046,1516.5
493.254,1522.11
493.461,1527.7
493.668,1533.58
493.875,1539.41
494.083,1544.52
494.29,1550.18
494.497,1555.96
494.704,1561.37
494.911,1566.78
495.119,1572.21
495.326,1577.83
495.533,1583.44
495.74,1588.78
495.947,1594.06
496.154,1599.39
496.361,1604.45
496.568,1609.35
496.775,1614.5
496.982,1619.64
497.19,1624.98
497.397,1630.09
497.604,1635.3
497.811,1640.49
498.018,1645.65
498.225,1650.82
498.432,1656.03
498.638,1661
498.845,1666.43
499.052,1671.05
499.259,1675.98
499.466,1681.03
499.673,1685.6
499.88,1690.51
500.087,1695.08
500.294,1699.71
500.501,1704.65
500.707,1709.23
500.914,1713.62
501.121,1718.37
501.328,1722.74
501.535,1727.61
501.741,1732.25
501.948,1736.75
502.155,1741.33
502.362,1745.37
502.568,1749.82
502.775,1754.02
502.982,1758.26
503.188,1762.41
503.395,1766.64
503.602,1770.3
503.808,1774.06
504.015,1777.89
504.222,1781.7
504.428,1785.55
504.635,1790.07
504.841,1793.57
505.048,1797.57
505.254,1801.38
505.461,1805.17
505.668,1808.56
505.874,1812.46
506.081,1816.24
506.287,1819.4
506.494,1822.65
506.7,1826.36
506.907,1830.1
507.113,1833.38
507.319,1836.95
507.526,1840.53
507.732,1843.93
507.939,1847.12
508.145,1849.97
508.351,1852.83
508.558,1855.57
508.764,1858.41
508.97,1861.14
509.177,1864.23
509.383,1867.17
509.589,1869.68
509.796,1871.99
510.002,1874.9
510.208,1877.35
510.414,1879.52
510.621,1881.9
510.827,1884.15
511.033,1886.67
511.239,1889.18
511.445,1891.2
511.652,1893.52
511.858,1895.68
512.064,1897.83
512.27,1900.26
512.476,1902.11
512.682,1904.29
512.888,1906.41
513.095,1908.08
513.301,1910.04
513.507,1911.7
513.713,1913.41
513.919,1915.1
514.125,1916.56
514.331,1918.41
514.537,1920.03
514.743,1921.6
514.949,1923.17
515.155,1924.68
515.361,1926.05
515.567,1927.45
515.773,1928.69
515.978,1929.94
516.184,1931.05
516.39,1931.62
516.596,1932.9
516.802,1933.66
517.008,1934.63
517.214,1935.39
517.419,1936.47
517.625,1937.57
517.831,1938.52
518.037,1939.03
518.243,1939.93
518.448,1941.01
518.654,1941.79
518.86,1942.27
519.066,1943.19
519.271,1943.72
519.477,1944.25
519.683,1944.68
519.888,1945.35
520.094,1945.72
520.3,1945.81
520.505,1946.4
520.711,1946.79
520.917,1947.3
521.122,1947.88
521.328,1948.18
521.533,1948.1
521.739,1948.48
521.944,1948.53
522.15,1948.56
522.356,1948.61
522.561,1948.95
522.767,1948.83
522.972,1948.59
523.177,1948.55
523.383,1948.66
523.588,1948.47
523.794,1948.07
523.999,1947.75
524.205,1947.51
524.41,1947.15
524.615,1946.56
524.821,1946.19
525.026,1945.62
525.232,1945.01
525.437,1944.46
525.642,1943.97
525.847,1943.49
526.053,1942.98
526.258,1942.44
526.463,1941.81
526.669,1941.17
526.874,1940.14
527.079,1938.77
527.284,1938
527.49,1936.94
527.695,1935.78
527.9,1934.67
528.105,1933.4
528.31,1932.16
528.515,1931.07
528.721,1929.79
528.926,1928.44
529.131,1927.13
529.336,1925.97
529.541,1924.92
529.746,1923.67
529.951,1922.16
530.156,1921.05
530.361,1919.3
530.566,1917.88
530.771,1916.33
530.976,1914.79
531.181,1913.41
531.386,1911.9
531.591,1910.03
531.796,1908.49
532.001,1906.85
532.206,1904.82
532.411,1903.04
532.616,1901.29
532.821,1899.32
533.025,1897.22
533.23,1895.09
533.435,1893.16
533.64,1891.14
533.845,1889.03
534.05,1887.07
534.254,1884.79
534.459,1882.63
534.664,1880.33
534.869,1878.34
535.073,1876.09
535.278,1873.72
535.483,1871.49
535.688,1869.19
535.892,1866.89
536.097,1864.56
536.302,1862.15
536.506,1859.94
536.711,1857.7
536.916,1855.14
537.12,1852.76
537.325,1850.61
537.529,1848.16
537.734,1845.75
537.938,1844.19
538.143,1842.01
538.348,1839.56
538.552,1836.73
538.757,1834.32
538.961,1831.93
539.166,1829.37
539.37,1826.78
539.575,1823.9
539.779,1820.99
539.983,1818.26
540.188,1815.15
540.392,1812.34
540.597,1809.69
540.801,1806.8
541.005,1804.08
541.21,1800.96
541.414,1798.35
541.618,1795.59
541.823,1792.66
542.027,1789.72
542.231,1787.01
542.436,1783.88
542.64,1781.1
542.844,1777.74
543.048,1774.56
543.253,1771.38
543.457,1768.12
543.661,1765.04
543.865,1761.95
544.069,1758.73
544.274,1755.6
544.478,1752.54
544.682,1749.49
544.886,1746.42
545.09,1743.55
545.294,1740.4
545.498,1737.45
545.702,1734.08
545.907,1730.41
546.111,1727.09
546.315,1723.81
546.519,1720.51
546.723,1716.93
546.927,1713.97
547.131,1710.78
547.335,1707.22
547.539,1704.06
547.743,1700.87
547.947,1697.6
548.15,1694.04
548.354,1690.66
548.558,1687.21
548.762,1683.74
548.966,1680.08
549.17,1676.62
549.374,1673.33
549.578,1669.86
549.781,1666.65
549.985,1663.31
550.189,1660.25
550.393,1657.1
550.597,1653.78
550.8,1650.23
551.004,1647.02
551.208,1643.86
551.412,1640.61
551.615,1637.25
551.819,1634.08
552.023,1630.72
552.226,1627.24
552.43,1623.77
552.634,1620.21
552.837,1616.93
553.041,1613.37
553.244,1609.88
553.448,1606.81
553.652,1603.55
553.855,1600.27
554.059,1597.23
554.262,1594.07
554.466,1590.95
554.669,1587.87
554.873,1584.84
555.076,1581.81
555.28,1578.57
555.483,1575.49
555.687,1572.06
555.89,1568.89
556.094,1565.5
556.297,1562.36
556.5,1559.26
556.704,1556.19
556.907,1553.25
557.111,1550.48
557.314,1547.33
557.517,1544.69
557.721,1541.73
557.924,1539.1
558.127,1535.94
558.33,1533.12
558.534,1530.42
558.737,1527.6
558.94,1524.52
559.144,1522
559.347,1519.35
559.55,1516.47
559.753,1513.8
559.956,1511.05
560.159,1508.37
560.363,1506.15
560.566,1503.76
560.769,1501.39
560.972,1498.76
561.175,1496.4
561.378,1494.28
561.581,1491.74
561.784,1489.44
561.987,1487.11
562.19,1484.5
562.394,1482.35
562.597,1480.78
562.8,1478.65
563.003,1476.67
563.205,1474.52
563.408,1472.8
563.611,1470.95
563.814,1469.4
564.017,1467.86
564.22,1466
564.423,1464.07
564.626,1462.45
564.829,1461.01
565.032,1459.73
565.235,1458.04
565.437,1456.81
565.64,1455.35
565.843,1454.28
566.046,1453.3
566.249,1452.22
566.451,1450.96
566.654,1450.14
566.857,1449.37
567.06,1448.33
567.262,1447.77
567.465,1447.36
567.668,1446.76
567.87,1446.1
568.073,1445.76
568.276,1445.13
568.478,1444.93
568.681,1444.85
568.884,1444.45
569.086,1444.55
569.289,1444.51
569.491,1444.68
569.694,1444.82
569.896,1445.02
570.099,1445.54
570.301,1445.57
570.504,1445.78
570.706,1445.87
570.909,1446.3
571.111,1446.6
571.314,1447.58
571.516,1448.22
571.719,1448.97
571.921,1449.51
572.124,1450.35
572.326,1451.09
572.528,1452.1
572.731,1453.2
572.933,1454.31
573.135,1455.89
573.338,1457.08
573.54,1458.19
573.742,1459.3
573.945,1461.08
574.147,1462.63
574.349,1464.12
574.551,1465.68
574.754,1467.37
574.956,1469.28
575.158,1470.82
575.36,1472.99
575.562,1474.97
575.765,1476.65
575.967,1478.47
576.169,1480.9
576.371,1482.88
576.573,1485.08
576.775,1486.88
576.977,1489.05
577.179,1491.29
577.382,1493.36
577.584,1495.66
577.786,1497.96
577.988,1500.71
578.19,1503.01
578.392,1505.53
578.594,1508.38
578.796,1510.44
578.998,1512.77
579.2,1515.28
579.401,1518.26
579.603,1521.05
579.805,1523.82
580.007,1526.37
580.209,1528.84
580.411,1532.32
580.613,1535.53
580.815,1538.74
581.016,1541.88
581.218,1545.07
581.42,1548.11
581.622,1551.29
581.824,1554.79
582.025,1558.47
582.227,1561.93
582.429,1564.95
582.631,1568.03
582.832,1571.44
583.034,1574.87
583.236,1578.26
583.437,1581.71
583.639,1585.29
583.841,1588.78
584.042,1592.42
584.244,1595.91
584.446,1599.8
584.647,1603.51
584.849,1607.04
585.05,1610.51
585.252,1613.92
585.453,1617.53
585.655,1621.33
585.856,1624.85
586.058,1628.49
586.259,1632.28
586.461,1635.94
586.662,1640.01
586.864,1643.98
587.065,1648.07
587.267,1651.84
587.468,1656
587.67,1660.12
587.871,1664.06
588.072,1667.92
588.274,1672.13
588.475,1676.32
588.676,1680.22
588.878,1684.29
589.079,1688.67
589.28,1692.81
589.481,1696.83
589.683,1700.88
589.884,1705.29
590.085,1709.52
590.286,1713.83
590.488,1718.09
590.689,1722.19
590.89,1726.26
591.091,1730.17
591.292,1734.51
591.494,1738.69
591.695,1742.82
591.896,1747.01
592.097,1751.28
592.298,1755.54
592.499,1759.88
592.7,1764.26
592.901,1768.8
593.102,1773.54
593.303,1778.19
593.504,1782.52
593.705,1787.07
593.906,1791.5
594.107,1795.94
594.308,1800.18
594.509,1804.35
594.71,1808.42
594.911,1812.81
595.112,1817.11
595.313,1821.48
595.514,1825.81
595.715,1830
595.915,1834.34
596.116,1838.44
596.317,1843.23
596.518,1847.64
596.719,1852.18
596.92,1856.62
597.12,1861.02
597.321,1865.45
597.522,1869.94
597.723,1874.1
597.923,1878.57
598.124,1882.48
598.325,1887.12
598.525,1890.72
598.726,1895.24
598.927,1899.62
599.127,1903.75
599.328,1908.04
599.529,1912.23
599.729,1916.04
599.93,1920.29
600.13,1924.22
600.331,1928.02
600.531,1932.08
600.732,1936.19
600.933,1939.93
601.133,1943.88
601.334,1947.87
601.534,1951.63
601.734,1955.34
601.935,1959.05
602.135,1962.8
602.336,1966.48
602.536,1970.1
602.737,1973.9
602.937,1977.46
603.137,1980.57
603.338,1983.92
603.538,1987.33
603.738,1991.11
603.939,1994.73
604.139,1998.06
604.339,2001.4
604.54,2004.53
604.74,2008.11
604.94,2011.22
605.14,2014.57
605.341,2017.63
605.541,2020.89
605.741,2023.89
605.941,2026.78
606.141,2029.95
606.342,2032.92
606.542,2035.9
606.742,2038.8
606.942,2041.93
607.142,2044.95
607.342,2047.76
607.542,2050.46
607.742,2052.88
607.942,2055.27
608.142,2057.67
608.343,2060.41
608.543,2063.07
608.743,2065.73
608.943,2068.01
609.143,2070.39
609.342,2072.99
609.542,2075.28
609.742,2077.74
609.942,2080.01
610.142,2081.89
610.342,2084.27
610.542,2086.2
610.742,2088.65
610.942,2090.71
611.142,2093.09
611.341,2095.21
611.541,2097.06
611.741,2098.74
611.941,2100.64
612.141,2102.34
612.34,2104.47
612.54,2106.19
612.74,2108.31
612.94,2109.83
613.139,2111.71
613.339,2112.99
613.539,2114.56
613.738,2115.9
613.938,2117.7
614.138,2119.49
614.337,2120.79
614.537,2122.29
614.736,2123.53
614.936,2125.19
615.136,2126.43
615.335,2127.43
615.535,2128.8
615.734,2130.02
615.934,2131.4
616.133,2132.6
616.333,2134.18
616.532,2135.29
616.732,2136.94
616.931,2138.13
617.131,2139.85
617.33,2141.27
617.529,2142.63
617.729,2143.84
617.928,2145.06
618.128,2146.18
618.327,2146.99
618.526,2147.84
618.726,2149.1
618.925,2150.14
619.124,2151.09
619.324,2152.34
619.523,2153.51
619.722,2154.49
619.921,2155.69
620.121,2156.29
620.32,2157.9
620.519,2159.08
620.718,2159.82
620.917,2160.66
621.117,2161.69
621.316,2162.72
621.515,2163.54
621.714,2164.78
621.913,2165.58
622.112,2166.64
622.311,2167.31
622.51,2168.31
622.709,2169.51
622.909,2171.01
623.108,2172.39
623.307,2173.04
623.506,2174.26
623.705,2175.4
623.904,2176.36
624.103,2177.26
624.301,2178.44
624.5,2179.6
624.699,2180.77
624.898,2181.68
625.097,2182.9
625.296,2184.21
625.495,2185.69
625.694,2186.56
625.893,2188.11
626.091,2189.29
626.29,2190.94
626.489,2191.82
626.688,2193.12
626.887,2194.04
627.085,2195.28
627.284,2196.12
627.483,2197.52
627.682,2198.61
627.88,2199.28
628.079,2200.64
628.278,2202.26
628.476,2203.31
628.675,2204.53
628.874,2205.77
629.072,2206.88
629.271,2208.25
629.47,2209.71
629.668,2211.09
629.867,2212.4
630.065,2213.37
630.264,2214.74
630.462,2216.03
630.661,2217.32
630.859,2218.92
631.058,2220.63
631.256,2222.26
631.455,2224.22
631.653,2225.94
631.852,2227.59
632.05,2228.78
632.249,2230.23
632.447,2232
632.645,2233.67
632.844,2235.27
633.042,2236.87
633.24,2238.24
633.439,2239.91
633.637,2241.56
633.835,2243.21
634.034,2244.89
634.232,2246.45
634.43,2248.41
634.628,2250.4
634.827,2252.35
635.025,2254.18
635.223,2256.07
635.421,2257.63
635.62,2259.2
635.818,2261.04
636.016,2262.78
636.214,2264.62
636.412,2266
636.61,2267.8
636.808,2269.53
637.006,2271.26
637.205,2273.04
637.403,2275.2
637.601,2276.63
637.799,2278.48
637.997,2280.41
638.195,2282.44
638.393,2284.03
638.591,2286.35
638.789,2288.16
638.987,2290.35
639.184,2292.31
639.382,2294.37
639.58,2296.44
639.778,2298.51
639.976,2300.38
640.174,2302.66
640.372,2305.39
640.57,2307.47
640.767,2309.57
640.965,2311.43
641.163,2313.45
641.361,2315.74
641.559,2318.23
641.756,2320.75
641.954,2322.75
642.152,2325.37
642.35,2327.72
642.547,2329.87
642.745,2332.13
642.943,2334.75
643.14,2337.21
643.338,2339.82
643.536,2342.44
643.733,2344.64
643.931,2346.67
644.128,2349.02
644.326,2351.27
644.524,2353.81
644.721,2355.74
644.919,2358.52
645.116,2360.78
645.314,2363.36
645.511,2365.37
645.709,2368.02
645.906,2370.68
646.104,2373.36
646.301,2376.05
646.498,2378.34
646.696,2380.73
646.893,2383.05
647.091,2385.08
647.288,2387.35
647.485,2389.92
647.683,2392.38
647.88,2394.95
648.077,2397.73
648.275,2400.08
648.472,2402.42
648.669,2404.74
648.867,2407.38
649.064,2409.86
649.261,2412.74
649.458,2415.17
649.655,2417.52
649.853,2419.76
650.05,2422.53
650.247,2425.2
650.444,2427.88
650.641,2430
650.838,2432.71
651.036,2435.12
651.233,2437.42
651.43,2439.62
651.627,2442.24
651.824,2444.4
652.021,2446.94
652.218,2449.27
652.415,2451.67
652.612,2453.59
652.809,2456.18
653.006,2458.18
653.203,2460.75
653.4,2462.95
653.597,2465.57
653.794,2467.95
653.991,2470.49
654.187,2472.82
654.384,2474.85
654.581,2477.25
654.778,2479.25
654.975,2481.36
655.172,2483.84
655.369,2485.89
655.565,2487.8
655.762,2489.89
655.959,2492.27
656.156,2494.01
656.352,2495.66
656.549,2497.71
656.746,2499.61
656.943,2501.31
657.139,2503.2
657.336,2505.29
657.533,2507.4
657.729,2509.16
657.926,2511.17
658.122,2513.52
658.319,2515.71
658.516,2517.44
658.712,2519.59
658.909,2521.53
659.105,2523.43
659.302,2525.2
659.498,2527.08
659.695,2528.5
659.891,2530.21
660.088,2531.67
660.284,2533.51
660.481,2535.17
660.677,2537
660.874,2538.5
661.07,2540.05
661.266,2541.8
661.463,2542.96
661.659,2544.47
661.856,2545.69
662.052,2547.18
662.248,2548.26
662.444,2549.58
662.641,2550.75
662.837,2552.03
663.033,2553.55
663.23,2554.55
663.426,2555.63
663.622,2556.9
663.818,2558.08
664.014,2559.17
664.211,2560.19
664.407,2561.3
664.603,2562.35
664.799,2563.46
664.995,2564.49
665.191,2565.22
665.387,2566.2
665.584,2566.72
665.78,2567.66
665.976,2568.17
666.172,2568.96
666.368,2569.69
666.564,2570.49
666.76,2571.44
666.956,2572.26
667.152,2572.75
667.348,2573.61
667.544,2574.33
667.74,2574.66
667.936,2574.69
668.131,2575.18
668.327,2575.15
668.523,2575.87
668.719,2576.34
668.915,2576.26
669.111,2576.36
669.307,2576.58
669.502,2576.91
669.698,2577.27
669.894,2577.41
670.09,2577.63
670.285,2577.46
670.481,2577.59
670.677,2577.24
670.873,2576.84
671.068,2575.98
671.264,2575.76
671.46,2575.39
671.655,2574.81
671.851,2574.52
672.047,2573.93
672.242,2573.03
672.438,2572.26
672.633,2571.59
672.829,2570.75
673.025,2569.89
673.22,2569
673.416,2567.96
673.611,2567.34
673.807,2566.47
674.002,2565.38
674.198,2564.44
674.393,2563.47
674.589,2562.2
674.784,2561
674.979,2559.89
675.175,2558.51
675.37,2557.05
675.566,2555.97
675.761,2554.48
675.956,2553.05
676.152,2551.62
676.347,2550.2
676.542,2548.88
676.738,2547.33
676.933,2545.35
677.128,2543.96
677.323,2542.47
677.519,2540.56
677.714,2538.97
677.909,2537.33
678.104,2535.55
678.299,2533.77
678.494,2531.6
678.69,2529.45
678.885,2527.3
679.08,2525.22
679.275,2523.43
679.47,2520.95
679.665,2518.65
679.86,2515.67
680.055,2513.18
680.25,2510.77
680.445,2508.52
680.64,2506.15
680.835,2503.25
681.03,2500.58
681.225,2497.94
681.42,2495.61
681.615,2492.5
681.81,2489.42
682.005,2486.8
682.2,2483.96
682.395,2480.83
682.59,2478.06
682.785,2475.04
682.979,2471.78
683.174,2468.75
683.369,2465.53
683.564,2462.3
683.759,2458.95
683.953,2455.68
684.148,2452.63
684.343,2449.07
684.538,2446.01
684.732,2442.22
684.927,2439.1
685.122,2435.72
685.316,2432.28
685.511,2428.42
685.706,2424.56
685.9,2421.35
686.095,2417.85
686.29,2413.95
686.484,2410.54
686.679,2406.68
686.873,2403.01
687.068,2399.14
687.262,2395.41
687.457,2391.34
687.651,2387.58
687.846,2383.67
688.04,2380.33
688.235,2376.18
688.429,2372.31
688.624,2367.8
688.818,2363.82
689.013,2359.8
689.207,2356.02
689.401,2351.89
689.596,2347.69
689.79,2343.64
689.984,2339.72
690.179,2335.49
690.373,2331.52
690.567,2327.37
690.762,2323.65
690.956,2319.43
691.15,2315.45
691.344,2311.06
691.538,2307.11
691.733,2302.93
691.927,2299.09
692.121,2294.8
692.315,2290.79
692.509,2286.67
692.703,2282.61
692.898,2278.39
693.092,2274.38
693.286,2269.97
693.48,2265.76
693.674,2261.73
693.868,2257.7
694.062,2253.96
694.256,2249.8
694.45,2245.64
694.644,2241.98
694.838,2237.97
695.032,2234.07
695.226,2229.87
695.42,2225.84
695.614,2222.21
695.808,2218.17
696.002,2214.3
696.195,2210.43
696.389,2206.33
696.583,2202.35
696.777,2198.4
696.971,2194.35
697.165,2190.51
697.358,2186.12
697.552,2181.81
697.746,2177.84
697.94,2173.78
698.133,2170.18
698.327,2166.01
698.521,2162.37
698.715,2158.14
698.908,2154.36
699.102,2150.74
699.296,2147.08
699.489,2143.18
699.683,2139.19
699.876,2135.49
700.07,2131.7
700.264,2128.03
700.457,2124.29
700.651,2120.73
700.844,2117.35
701.038,2113.88
701.231,2110.36
701.425,2106.77
701.618,2103.52
701.812,2099.9
702.005,2096.28
702.199,2092.86
702.392,2089.66
702.586,2086.43
702.779,2082.96
702.972,2079.72
703.166,2076.56
703.359,2073.46
703.552,2069.82
703.746,2066.49
703.939,2063.42
704.132,2059.97
704.326,2056.96
704.519,2053.88
704.712,2050.89
704.905,2047.84
705.099,2044.79
705.292,2041.74
705.485,2039
705.678,2035.79
705.871,2032.56
706.064,2029.55
706.258,2026.57
706.451,2023.4
706.644,2020.7
706.837,2018.13
707.03,2015.73
707.223,2012.98
707.416,2010.47
707.609,2007.2
707.802,2004.78
707.995,2002.17
708.188,1999.68
708.381,1996.92
708.574,1994.57
708.767,1991.75
708.96,1988.97
709.153,1986.55
709.346,1984.61
709.539,1981.82
709.732,1979.54
709.924,1977.28
710.117,1975.26
710.31,1972.66
710.503,1970.55
710.696,1968.84
710.889,1966.79
711.081,1964.99
711.274,1963.24
711.467,1961.59
711.66,1959.68
711.852,1957.89
712.045,1956.27
712.238,1954.5
712.43,1953
712.623,1950.98
712.816,1949.18
713.008,1947.78
713.201,1946.32
713.394,1944.62
713.586,1943.3
713.779,1941.96
713.971,1940.93
714.164,1939.85
714.356,1938.58
714.549,1937.38
714.741,1936.54
714.934,1935.55
715.126,1934.73
715.319,1933.76
715.511,1932.54
715.704,1931.52
715.896,1930.92
716.088,1930.13
716.281,1929.33
716.473,1928.84
716.666,1928.13
716.858,1927.38
717.05,1926.92
717.243,1926.45
717.435,1926.17
717.627,1925.93
717.819,1925.89
718.012,1925.77
718.204,1925.72
718.396,1926.09
718.588,1926.14
718.781,1926.31
718.973,1926.77
719.165,1926.7
719.357,1927.02
719.549,1927.02
719.741,1927.48
719.934,1927.75
720.126,1928.25
720.318,1928.86
720.51,1929.51
720.702,1930.4
720.894,1931.4
721.086,1932.73
721.278,1933.69
721.47,1934.75
721.662,1935.82
721.854,1937.68
722.046,1939.04
722.238,1940.56
722.43,1942.21
722.622,1944.04
722.814,1945.51
723.005,1947.15
723.197,1949.05
723.389,1950.71
723.581,1953.19
723.773,1955.12
723.965,1957.42
724.156,1959.64
724.348,1961.99
724.54,1964.35
724.732,1966.62
724.923,1969.16
725.115,1972.17
725.307,1974.92
725.499,1978.12
725.69,1980.81
725.882,1984.16
726.074,1987.28
726.265,1991
726.457,1994.25
726.648,1998.01
726.84,2001.23
727.032,2005.26
727.223,2008.87
727.415,2012.81
727.606,2016.99
727.798,2021.28
727.989,2025.21
728.181,2029.57
728.372,2034.26
728.564,2038.63
728.755,2043.36
728.947,2048.08
729.138,2052.69
729.329,2057.85
729.521,2062.88
729.712,2068
729.904,2073.31
730.095,2079.06
730.286,2084.59
730.478,2090.24
730.669,2096.09
730.86,2102.47
731.051,2108.37
731.243,2114.46
731.434,2120.96
731.625,2127.65
731.816,2134.07
732.008,2141.04
732.199,2148.13
732.39,2155.34
732.581,2162.09
732.772,2169.07
732.963,2176.56
733.154,2184.03
733.346,2191.51
733.537,2199.34
733.728,2206.83
733.919,2215.03
734.11,2223.42
734.301,2231.5
734.492,2240
734.683,2248.52
734.874,2257.23
735.065,2265.98
735.256,2274.79
735.447,2284
735.638,2293.74
735.829,2303.11
736.019,2312.65
736.21,2322.93
736.401,2332.87
736.592,2343.05
736.783,2353.2
736.974,2364.18
737.164,2374.4
737.355,2385.74
737.546,2396.51
737.737,2407.58
737.928,2418.21
738.118,2429.61
738.309,2441.4
738.5,2453.19
738.69,2464.84
738.881,2476.82
739.072,2488.71
739.262,2501.13
739.453,2513.21
739.644,2525.56
739.834,2537.95
740.025,2551.17
740.215,2564.13
740.406,2577.27
740.596,2590.24
740.787,2603.62
740.978,2617.03
741.168,2630.77
741.358,2644.57
741.549,2658.85
741.739,2672.51
741.93,2686.9
742.12,2701.16
742.311,2715.77
742.501,2730.19
742.691,2745.09
742.882,2760.2
743.072,2774.99
743.263,2789.95
743.453,2805.08
743.643,2820.51
743.833,2836.1
744.024,2851.44
744.214,2867.66
744.404,2883.17
744.594,2899.32
744.785,2915.41
744.975,2931.63
745.165,2947.91
745.355,2964.17
745.545,2980.31
745.736,2997.03
745.926,3013.49
746.116,3030.74
746.306,3047.63
746.496,3064.7
746.686,3082.01
746.876,3099.15
747.066,3116.26
747.256,3134.32
747.446,3151.74
747.636,3169.21
747.826,3186.54
748.016,3204.56
748.206,3222.44
748.396,3240.5
748.586,3258.31
748.776,3276.78
748.966,3294.73
749.156,3313.25
749.346,3331.43
749.535,3349.79
749.725,3368.24
749.915,3386.64
750.105,3405.23
750.295,3423.97
750.484,3442.26
750.674,3461.31
750.864,3479.85
751.054,3498.98
751.243,3517.39
751.433,3536.48
751.623,3555.04
751.812,3574.02
752.002,3592.96
752.192,3611.81
752.381,3630.41
752.571,3649.19
752.761,3668.43
752.95,3687.66
753.14,3706.25
753.329,3725.29
753.519,3744.1
753.708,3763.55
753.898,3782.51
754.087,3801.41
754.277,3820.14
754.466,3839.28
754.656,3858.23
754.845,3877.26
755.035,3896.04
755.224,3915.45
755.413,3934.49
755.603,3953.68
755.792,3972.19
755.982,3991.13
756.171,4009.65
756.36,4028.78
756.549,4047.26
756.739,4066.05
756.928,4085.19
757.117,4104.21
757.307,4122.98
757.496,4141.58
757.685,4160.12
757.874,4179.14
758.063,4197.59
758.253,4216.08
758.442,4234.09
758.631,4252.17
758.82,4270.58
759.009,4288.83
759.198,4306.79
759.387,4324.75
759.576,4342.87
759.765,4360.93
759.954,4378.77
760.143,4396.22
760.332,4413.44
760.521,4431.33
760.71,4448.71
760.899,4466.18
761.088,4483.63
761.277,4501.24
761.466,4518.05
761.655,4535.27
761.844,4552.14
762.033,4569.8
762.222,4586.39
762.411,4602.88
762.599,4619.54
762.788,4636.33
762.977,4652.57
763.166,4668.96
763.355,4685.04
763.543,4701.46
763.732,4718.01
763.921,4733.98
764.109,4749.62
764.298,4765.08
764.487,4780.31
764.675,4795.99
764.864,4810.91
765.053,4826.27
765.241,4840.92
765.43,4855.6
765.619,4870.34
765.807,4885.02
765.996,4898.89
766.184,4913.47
766.373,4927.84
766.561,4941.54
766.75,4955.51
766.938,4969.14
767.127,4982.89
767.315,4996.76
767.504,5009.85
767.692,5022.94
767.881,5036.09
768.069,5049.18
768.257,5061.4
768.446,5073.8
768.634,5086.33
768.822,5098.31
769.011,5110.2
769.199,5122.25
769.387,5133.88
769.576,5145.25
769.764,5156.09
769.952,5167.34
770.14,5178.07
770.328,5188.69
770.517,5199.44
770.705,5210.24
770.893,5220.4
771.081,5230.67
771.269,5240.3
771.457,5250.21
771.646,5259.65
771.834,5269.72
772.022,5278.76
772.21,5287.34
772.398,5296.08
772.586,5304.46
772.774,5312.83
772.962,5321.01
773.15,5329.02
773.338,5336.9
773.526,5344.29
773.714,5351.71
773.902,5359.13
774.09,5366.67
774.278,5373.14
774.465,5379.92
774.653,5386.15
774.841,5392.39
775.029,5397.67
775.217,5403.57
775.405,5408.42
775.592,5413.93
775.78,5419.11
775.968,5424.71
776.156,5428.96
776.343,5433.33
776.531,5437.3
776.719,5441.54
776.907,5445.22
777.094,5448.9
777.282,5451.9
777.47,5455.25
777.657,5458.3
777.845,5461.37
778.032,5463.79
778.22,5466.02
778.408,5467.93
778.595,5469.94
778.783,5471.63
778.97,5473.25
779.158,5474.15
779.345,5475.42
779.533,5476.15
779.72,5477.03
779.908,5477.07
780.095,5477.32
780.282,5477.37
780.47,5477.1
780.657,5476.69
780.845,5475.94
781.032,5475.08
781.219,5474.39
781.407,5473.21
781.594,5471.97
781.781,5470.26
781.969,5468.7
782.156,5466.4
782.343,5464.55
782.53,5462.35
782.718,5460.18
782.905,5457.75
783.092,5454.84
783.279,5452.01
783.466,5449.15
783.653,5445.86
783.841,5443.07
784.028,5439.1
784.215,5435.62
784.402,5432.02
784.589,5427.77
784.776,5423.9
784.963,5419.96
785.15,5415.1
785.337,5411.04
785.524,5406.25
785.711,5401.66
785.898,5397.03
786.085,5392.14
786.272,5386.83
786.459,5381.86
786.646,5376.59
786.833,5371.61
787.02,5365.74
787.206,5360.43
787.393,5354.69
787.58,5348.86
787.767,5342.89
787.954,5336.89
788.14,5330.82
788.327,5325.12
788.514,5318.57
788.701,5312.44
788.887,5305.72
789.074,5300.18
789.261,5293.43
789.448,5287.01
789.634,5280.66
789.821,5274.12
790.008,5267.53
790.194,5261.26
790.381,5255.15
790.567,5248.52
790.754,5241.74
790.94,5235.45
791.127,5228.56
791.314,5222.01
791.5,5214.51
791.687,5208.04
791.873,5201.57
792.059,5195.23
792.246,5188.42
792.432,5181.4
792.619,5174.52
792.805,5168.13
792.992,5160.56
793.178,5153.24
793.364,5146.21
793.551,5139.82
793.737,5132.68
793.923,5125.91
794.11,5118.96
794.296,5112.58
794.482,5105.41
794.668,5098.22
794.855,5091
795.041,5084.07
795.227,5077.39
795.413,5070.65
795.599,5063.64
795.786,5056.78
795.972,5049.62
796.158,5043.18
796.344,5036.36
796.53,5030.04
796.716,5022.82
796.902,5016.29
797.088,5009.16
797.274,5002.18
797.46,4995.32
797.646,4988.58
797.832,4981.89
798.018,4975.7
798.204,4968.81
798.39,4962.09
798.576,4955.25
798.762,4948.82
798.948,4941.9
799.134,4936.04
799.32,4929.07
799.506,4922.71
799.692,4915.83
799.877,4909.6
800.063,4903.28
800.249,4897.18
800.435,4890.6
800.621,4884.39
800.806,4878.22
800.992,4871.69
801.178,4864.85
801.363,4857.62
801.549,4851.54
801.735,4845.53
801.92,4839.5
802.106,4833.82
802.292,4827.36
802.477,4821.46
802.663,4815.09
802.849,4809.19
803.034,4803.69
803.22,4798.1
803.405,4791.96
803.591,4786.89
803.776,4780.93
803.962,4775.21
804.147,4769.69
804.333,4763.93
804.518,4758.4
804.703,4752.68
804.889,4746.68
805.074,4741.57
805.26,4735.9
805.445,4730.38
805.63,4724.67
805.816,4720.14
806.001,4714.6
806.186,4709.45
806.372,4704.26
806.557,4698.95
806.742,4693.63
806.927,4688.88
807.113,4683.88
807.298,4679.02
807.483,4673.66
807.668,4668.73
807.853,4663.7
808.039,4658.5
808.224,4653.2
808.409,4648.45
808.594,4643.07
808.779,4638.28
808.964,4632.85
809.149,4627.9
809.334,4622.36
809.519,4617.56
809.704,4612.87
809.889,4608.17
810.074,4603.56
810.259,4599.24
810.444,4594.41
810.629,4589.81
810.814,4585.03
810.999,4580.64
811.184,4575.57
811.369,4570.86
811.554,4565.91
811.738,4561.56
811.923,4556.72
812.108,4551.99
812.293,4547.08
812.478,4543.25
812.662,4538.62
812.847,4534.42
813.032,4529.97
813.217,4525.45
813.401,4520.56
813.586,4516.7
813.771,4512.38
813.955,4507.99
814.14,4503.69
814.325,4499.49
814.509,4495.1
814.694,4491.12
814.878,4487.1
815.063,4482.97
815.248,4478.43
815.432,4474.22
815.617,4470.18
815.801,4466.66
815.986,4462.81
816.17,4458.79
816.355,4454.81
816.539,4451.09
816.723,4447.11
816.908,4442.97
817.092,4439.25
817.277,4435.42
817.461,4432.07
817.645,4428.25
817.83,4424.52
818.014,4420.99
818.198,4417.22
818.383,4414
818.567,4410.15
818.751,4406.56
818.935,4402.65
819.12,4399.52
819.304,4395.72
819.488,4392.43
819.672,4388.88
819.856,4385.11
820.041,4381.54
820.225,4378.06
820.409,4374.57
820.593,4371.27
820.777,4368.18
820.961,4364.91
821.145,4361.19
821.329,4358.3
821.513,4354.65
821.697,4351.02
821.881,4347.57
822.065,4344.44
822.249,4340.76
822.433,4337.46
822.617,4334.08
822.801,4330.85
822.985,4327.54
823.169,4324.07
823.353,4320.45
823.536,4317.61
823.72,4314.21
823.904,4310.63
824.088,4306.99
824.272,4303.5
824.456,4299.88
824.639,4296.51
824.823,4292.87
825.007,4289.28
825.19,4285.58
825.374,4282.24
825.558,4278.61
825.742,4275.18
825.925,4271.38
826.109,4268.08
826.292,4263.67
826.476,4259.91
826.66,4256.11
826.843,4252.2
827.027,4248.17
827.21,4244.45
827.394,4240.2
827.577,4235.76
827.761,4231.71
827.944,4227.34
828.128,4223.09
828.311,4218.88
828.495,4214.26
828.678,4210.03
828.862,4205.37
829.045,4201
829.228,4196.09
829.412,4191.43
829.595,4186.97
829.778,4182.69
829.962,4177.98
830.145,4173.47
830.328,4169.21
830.512,4164.38
830.695,4159.11
830.878,4154.64
831.061,4149.73
831.244,4144.74
831.428,4139.25
831.611,4134.52
831.794,4129.64
831.977,4124.99
832.16,4120.05
832.343,4115.23
832.526,4110.26
832.709,4105.33
832.893,4100.43
833.076,4095.73
833.259,4090.72
833.442,4085.93
833.625,4080.29
833.808,4075.74
833.991,4070.28
834.174,4065.55
834.356,4060.63
834.539,4055.36
834.722,4050.38
834.905,4045.04
835.088,4039.63
835.271,4034.37
835.454,4029.41
835.637,4024.17
835.819,4018.83
836.002,4013.57
836.185,4007.82
836.368,4003.21
836.551,3997.68
836.733,3991.99
836.916,3986.2
837.099,3980.62
837.281,3974.86
837.464,3969.62
837.647,3963.9
837.829,3958.22
838.012,3952.64
838.195,3947.14
838.377,3941.63
838.56,3935.92
838.742,3929.72
838.925,3924.27
839.107,3917.95
839.29,3912.19
839.472,3906.12
839.655,3900.52
839.837,3894.6
840.02,3888.54
840.202,3882.41
840.385,3876.77
840.567,3870.39
840.749,3864.7
840.932,3858.79
841.114,3852.69
841.297,3846.57
841.479,3840.55
841.661,3834.51
841.843,3828.49
842.026,3822.12
842.208,3816.32
842.39,3810.17
842.572,3804.19
842.755,3797.61
842.937,3791.62
843.119,3785.09
843.301,3778.72
843.483,3772.33
843.666,3766.3
843.848,3759.77
844.03,3753.19
844.212,3746.98
844.394,3740.8
844.576,3734.18
844.758,3727.65
844.94,3721.06
845.122,3715.07
845.304,3708.81
845.486,3702.89
845.668,3696.72
845.85,3690.62
846.032,3684.3
846.214,3678.41
846.396,3671.76
846.578,3665.46
846.759,3658.98
846.941,3652.44
847.123,3645.67
847.305,3639.4
847.487,3633.12
847.669,3626.97
847.85,3620.41
848.032,3614.24
848.214,3607.69
848.396,3601.35
848.577,3594.91
848.759,3588.88
848.941,3582.67
849.122,3576.51
849.304,3569.77
849.486,3563.75
849.667,3557.68
849.849,3551.47
850.03,3545.35
850.212,3539.5
850.394,3532.92
850.575,3526.52
850.757,3520.5
850.938,3514.4
851.12,3508.18
851.301,3502.38
851.483,3496.12
851.664,3489.9
851.845,3483.63
852.027,3477.78
852.208,3471.69
852.39,3465.62
852.571,3459.37
852.752,3453.34
852.934,3447.69
853.115,3441.76
853.296,3435.88
853.478,3430.31
853.659,3424.35
853.84,3418.33
854.021,3412.5
854.203,3406.25
854.384,3400.58
854.565,3394.96
854.746,3388.94
854.927,3383.22
855.108,3377.42
855.29,3371.99
855.471,3366.01
855.652,3360.78
855.833,3354.97
856.014,3349.54
856.195,3343.69
856.376,3338.46
856.557,3333.15
856.738,3327.76
856.919,3322.25
857.1,3316.93
857.281,3311.08
857.462,3305.53
857.643,3299.63
857.824,3294.18
858.005,3288.59
858.185,3283.28
858.366,3278.23
858.547,3273.06
858.728,3267.61
858.909,3262.53
859.09,3257.31
859.27,3252.24
859.451,3247.2
859.632,3241.92
859.813,3236.5
859.993,3231.6
860.174,3226.67
860.355,3221.32
860.535,3216.11
860.716,3210.77
860.897,3205.71
861.077,3200.7
861.258,3195.43
861.438,3190.56
861.619,3185.65
861.8,3180.92
861.98,3175.63
862.161,3170.6
862.341,3165.86
862.522,3161.21
862.702,3155.98
862.883,3151.7
863.063,3146.95
863.243,3142.34
863.424,3137.72
863.604,3132.96
863.785,3127.83
863.965,3123.52
864.145,3119
864.326,3114.3
864.506,3109.74
864.686,3105.41
864.867,3101.06
865.047,3096.72
865.227,3092.53
865.407,3088.43
865.588,3083.98
865.768,3079.67
865.948,3075
866.128,3070.84
866.308,3066.14
866.488,3062.28
866.669,3058.23
866.849,3053.92
867.029,3049.81
867.209,3045.84
867.389,3041.45
867.569,3037.46
867.749,3032.83
867.929,3029
868.109,3024.63
868.289,3020.54
868.469,3015.92
868.649,3011.68
868.829,3007.02
869.009,3002.74
869.189,2998.06
869.369,2993.81
869.548,2989.18
869.728,2984.86
869.908,2980.36
870.088,2975.98
870.268,2971.57
870.448,2967.65
870.627,2963.02
870.807,2958.9
870.987,2954.64
871.167,2950.32
871.346,2946.03
871.526,2941.65
871.706,2937.38
871.885,2933.12
872.065,2928.75
872.245,2924.28
872.424,2920.02
872.604,2916.04
872.783,2911.25
872.963,2907
873.142,2902.61
873.322,2898.8
873.501,2894.58
873.681,2890.15
873.86,2885.51
874.04,2881.49
874.219,2877.34
874.399,2873.43
874.578,2869.21
874.758,2865.25
874.937,2860.92
875.116,2857.22
875.296,2852.52
875.475,2848.61
875.654,2844.4
875.834,2840.46
876.013,2836.06
876.192,2832.12
876.372,2828.04
876.551,2823.87
876.73,2819.67
876.909,2815.98
877.088,2811.73
877.268,2807.69
877.447,2803.25
877.626,2799.44
877.805,2795.05
877.984,2791.02
878.163,2787.09
878.342,2782.97
878.521,2778.7
878.7,2774.39
878.879,2770.21
879.059,2766.13
879.238,2761.86
879.417,2757.68
879.595,2753.64
879.774,2749.57
879.953,2745.14
880.132,2741
880.311,2736.71
880.49,2732.67
880.669,2728.3
880.848,2724.24
881.027,2720.1
881.205,2716.13
881.384,2711.61
881.563,2707.41
881.742,2703.06
881.921,2698.84
882.099,2694.93
882.278,2690.73
882.457,2686.27
882.635,2682.22
882.814,2678
882.993,2674.02
883.171,2669.8
883.35,2665.5
883.529,2661.31
883.707,2657.25
883.886,2653.27
884.064,2649.12
884.243,2644.8
884.422,2640.55
884.6,2636.25
884.779,2632.1
884.957,2627.32
885.136,2623.11
885.314,2618.61
885.492,2614.62
885.671,2610.26
885.849,2605.72
886.028,2601.3
886.206,2596.74
886.384,2592
886.563,2587.66
886.741,2583.48
886.919,2578.92
887.098,2574.4
887.276,2569.89
887.454,2565.35
887.632,2560.98
887.811,2556.22
887.989,2551.69
888.167,2547.18
888.345,2542.86
888.523,2538.14
888.702,2533.55
888.88,2528.91
889.058,2523.94
889.236,2519.27
889.414,2514.53
889.592,2509.53
889.77,2504.89
889.948,2500.22
890.126,2495.63
890.304,2490.9
890.482,2486.11
890.66,2481.03
890.838,2476.23
891.016,2471.2
891.194,2466.28
891.372,2461.16
891.55,2456.46
891.728,2451.07
891.905,2446.1
892.083,2440.81
892.261,2435.91
892.439,2430.82
892.617,2425.56
892.794,2420.27
892.972,2415.09
893.15,2409.9
893.328,2405.09
893.505,2399.54
893.683,2394.62
893.861,2389.44
894.038,2384.34
894.216,2379.25
894.394,2373.76
894.571,2368.36
894.749,2363.15
894.926,2357.55
895.104,2352.18
895.281,2346.54
895.459,2340.84
895.637,2335.39
895.814,2329.93
895.992,2324.46
896.169,2318.44
896.346,2312.85
896.524,2307.43
896.701,2301.93
896.879,2296.25
897.056,2290.36
897.233,2284.74
897.411,2279.21
897.588,2273.54
897.765,2267.45
897.943,2261.73
898.12,2256.13
898.297,2250.29
898.475,2244.13
898.652,2238.74
898.829,2232.67
899.006,2226.7
899.183,2220.6
899.361,2214.55
899.538,2208.71
899.715,2202.96
899.892,2197.13
900.069,2191.2
900.246,2185.18
900.423,2179.23
900.6,2172.78
900.777,2166.97
900.954,2160.95
901.131,2154.88
901.308,2148.62
901.485,2142.44
901.662,2136.31
901.839,2130.43
902.016,2124.07
902.193,2117.87
902.37,2111.38
902.547,2105.27
902.724,2099.06
902.9,2092.75
903.077,2086.5
903.254,2080.47
903.431,2074.25
903.608,2068.3
903.784,2061.87
903.961,2055.72
904.138,2049.02
904.315,2043.11
904.491,2036.59
904.668,2030.77
904.845,2024.45
905.021,2018.37
905.198,2012.26
905.375,2006.1
905.551,1999.84
905.728,1993.74
905.904,1987.51
906.081,1981.27
906.257,1974.68
906.434,1968.62
906.61,1961.99
906.787,1955.66
906.963,1949.23
907.14,1942.99
907.316,1936.56
907.493,1930.22
907.669,1923.68
907.845,1917.53
908.022,1911.5
908.198,1905.13
908.374,1898.57
908.551,1892.3
908.727,1886.29
908.903,1880.22
909.08,1873.82
909.256,1867.67
909.432,1861.74
909.608,1855.63
909.785,1849.37
909.961,1843.02
910.137,1836.73
910.313,1830.73
910.489,1824.64
910.665,1818.57
910.841,1812.22
911.018,1806.39
911.194,1799.98
911.37,1794.14
911.546,1787.89
911.722,1781.75
911.898,1775.68
912.074,1769.5
912.25,1763.26
912.426,1757.04
912.602,1750.85
912.777,1744.73
912.953,1738.7
913.129,1733.14
913.305,1727.08
913.481,1721.13
913.657,1715.18
913.833,1709.15
914.008,1703.39
914.184,1697.48
914.36,1691.9
914.536,1686.04
914.712,1679.94
914.887,1674.34
915.063,1668.47
915.239,1662.98
915.414,1657.2
915.59,1651.68
915.766,1646.04
915.941,1640.75
916.117,1634.79
916.292,1629.49
916.468,1624.14
916.644,1618.76
916.819,1613.18
916.995,1608.12
917.17,1602.4
917.346,1596.98
917.521,1591.58
917.697,1585.81
917.872,1580.42
918.048,1575.07
918.223,1569.5
918.398,1564.43
918.574,1558.9
918.749,1553.87
918.924,1548.58
919.1,1543
919.275,1537.47
919.45,1531.96
919.626,1526.77
919.801,1521.45
919.976,1516.12
920.151,1511.07
920.327,1505.71
920.502,1500.82
920.677,1495.55
920.852,1490.53
921.027,1485.08
921.202,1479.95
921.378,1474.82
921.553,1469.69
921.728,1464.76
921.903,1459.8
922.078,1454.75
922.253,1449.52
922.428,1444.66
922.603,1439.98
922.778,1435.17
922.953,1430.31
923.128,1425.33
923.303,1420.56
923.478,1416.19
923.652,1411.57
923.827,1406.62
924.002,1401.83
924.177,1397
924.352,1392.11
924.527,1387.35
924.702,1382.6
924.876,1377.78
925.051,1373.05
925.226,1368.35
925.401,1363.46
925.575,1358.82
925.75,1354.59
925.925,1349.92
926.099,1345.26
926.274,1340.7
926.449,1336.42
926.623,1331.93
926.798,1327.42
926.972,1323.21
927.147,1319.03
927.322,1314.5
927.496,1310.38
927.671,1306.04
927.845,1301.59
928.02,1297.08
928.194,1292.9
928.368,1288.47
928.543,1283.95
928.717,1279.44
928.892,1275.23
929.066,1270.84
929.24,1266.51
929.415,1262.05
929.589,1257.73
929.763,1253.48
929.938,1249.3
930.112,1245.06
930.286,1240.97
930.461,1236.9
930.635,1232.74
930.809,1228.7
930.983,1224.61
931.157,1220.45
931.332,1216.36
931.506,1212.49
931.68,1208.62
931.854,1204.79
932.028,1200.84
932.202,1196.93
932.376,1193.31
932.55,1189.47
932.724,1185.26
932.898,1181.37
933.072,1177.75
933.246,1174.29
933.42,1170.22
933.594,1166.23
933.768,1162.58
933.942,1158.53
934.116,1154.85
934.29,1151.1
934.464,1147.6
934.638,1144.04
934.811,1140.39
934.985,1136.73
935.159,1132.71
935.333,1128.98
935.507,1125.3
935.68,1121.5
935.854,1117.98
936.028,1114.22
936.201,1110.66
936.375,1107.33
936.549,1103.81
936.722,1100.4
936.896,1096.96
937.07,1093.31
937.243,1090.19
937.417,1086.99
937.59,1083.45
937.764,1079.86
937.938,1076.52
938.111,1073.07
938.285,1069.86
938.458,1066.26
938.631,1063.1
938.805,1059.83
938.978,1056.66
939.152,1053.43
939.325,1050.56
939.499,1047.39
939.672,1044.2
939.845,1040.85
940.019,1037.61
940.192,1034.45
940.365,1031.03
940.538,1028.11
940.712,1025.02
940.885,1021.94
941.058,1019.22
941.231,1016.25
941.405,1013.28
941.578,1010
941.751,1006.99
941.924,1004.04
942.097,1000.95
942.27,997.915
942.443,995.297
942.617,992.436
942.79,989.749
942.963,986.717
943.136,983.833
943.309,980.95
943.482,978.132
943.655,975.399
943.828,972.387
944.001,969.558
944.173,966.723
944.346,963.838
944.519,960.837
944.692,958.17
944.865,955.343
945.038,952.783
945.211,950.019
945.383,947.162
945.556,944.296
945.729,941.659
945.902,938.984
946.075,936.156
946.247,933.622
946.42,930.897
946.593,928.334
946.765,925.694
946.938,922.911
947.111,920.504
947.283,918.054
947.456,915.188
947.628,912.379
947.801,910.102
947.974,907.165
948.146,904.334
948.319,901.605
948.491,899.456
948.664,896.72
948.836,894.135
949.009,891.629
949.181,889.11
949.353,886.472
949.526,883.827
949.698,881.471
949.871,878.989
950.043,876.546
950.215,873.876
950.388,871.289
950.56,869.01
950.732,866.425
950.904,863.848
951.077,861.67
951.249,859.16
951.421,856.692
951.593,854.379
951.766,852.084
951.938,849.779
952.11,847.475
952.282,845.111
952.454,842.611
952.626,840.446
952.798,838.274
952.97,835.796
953.142,833.684
953.314,830.941
953.487,828.569
953.659,826.119
953.83,823.884
954.002,821.647
954.174,819.41
954.346,816.909
954.518,814.551
954.69,812.376
954.862,810.388
955.034,808.237
955.206,806.151
955.378,803.916
955.549,801.761
955.721,799.316
955.893,797.117
956.065,794.803
956.236,792.845
956.408,790.876
956.58,788.704
956.752,786.479
956.923,784.616
957.095,782.531
957.267,780.415
957.438,777.935
957.61,775.703
957.781,773.442
957.953,771.306
958.125,769.242
958.296,766.845
958.468,764.603
958.639,762.494
958.811,760.617
958.982,758.816
959.154,756.858
959.325,754.778
959.496,752.607
959.668,750.459
959.839,748.509
960.011,746.543
960.182,744.833
960.353,742.713
960.525,740.419
960.696,738.214
960.867,736.596
961.038,734.675
961.21,732.838
961.381,730.657
961.552,728.756
961.723,726.571
961.895,724.377
962.066,722.253
962.237,720.408
962.408,718.406
962.579,716.436
962.75,714.616
962.921,712.836
963.092,711.103
963.263,709.184
963.434,707.206
963.605,705.165
963.776,703.192
963.947,701.341
964.118,699.455
964.289,697.437
964.46,695.604
964.631,693.702
964.802,691.725
964.973,689.956
965.144,687.94
965.315,686.012
965.485,683.976
965.656,682.14
965.827,680.383
965.998,678.251
966.169,676.1
966.339,674.481
966.51,672.512
966.681,670.857
966.851,669.177
967.022,667.006
967.193,665.035
967.363,663.541
967.534,661.434
967.705,659.755
967.875,657.651
968.046,655.944
968.216,654.097
968.387,652.657
968.557,650.709
968.728,649.016
968.898,647.505
969.069,645.65
969.239,643.891
969.41,642.215
969.58,640.433
969.751,638.749
969.921,637.309
970.091,635.71
970.262,634.305
970.432,632.765
970.602,631.143
970.773,629.467
970.943,627.631
971.113,626.18
971.283,624.36
971.454,622.514
971.624,621.216
971.794,619.422
971.964,617.753
972.134,615.857
972.305,614.27
972.475,612.656
972.645,611.078
972.815,609.431
972.985,608.056
973.155,606.03
973.325,604.513
973.495,602.848
973.665,601.276
973.835,599.382
974.005,597.574
974.175,596.069
974.345,594.181
974.515,592.611
974.685,590.936
974.855,589.444
975.024,587.904
975.194,585.869
975.364,583.987
975.534,582.029
975.704,580.094
975.874,578.366
976.043,576.857
976.213,575.145
976.383,573.491
976.553,571.913
976.722,570.723
976.892,568.937
977.062,567.29
977.231,565.296
977.401,563.985
977.57,562.232
977.74,560.718
977.91,558.974
978.079,557.527
978.249,555.772
978.418,554.136
978.588,552.463
978.757,550.977
978.927,549.565
979.096,547.782
979.266,546.374
979.435,544.757
979.604,543.445
979.774,542.075
979.943,540.461
980.113,538.833
980.282,537.174
980.451,535.531
980.621,534.077
980.79,532.372
980.959,530.891
981.128,529.345
981.298,527.741
981.467,525.984
981.636,524.31
981.805,523.021
981.974,521.619
982.143,519.732
982.313,518.128
982.482,516.617
982.651,515.114
982.82,513.378
982.989,511.974
983.158,510.475
983.327,508.943
983.496,507.499
983.665,505.922
983.834,504.391
984.003,502.939
984.172,501.392
984.341,499.985
984.51,498.467
984.679,497.072
984.847,495.306
985.016,493.851
985.185,492.274
985.354,490.628
985.523,489.189
985.692,487.807
985.86,486.224
986.029,484.746
986.198,483.07
986.366,481.504
986.535,479.89
986.704,478.482
986.873,477.048
987.041,475.475
987.21,474.107
987.378,472.676
987.547,471.565
987.716,470.152
987.884,468.37
988.053,467.02
988.221,465.707
988.39,464.496
988.558,463.056
988.727,461.473
988.895,459.951
989.064,458.35
989.232,456.819
989.4,455.455
989.569,454.032
989.737,452.701
989.905,451.51
990.074,450.176
990.242,448.819
990.41,447.133
990.579,445.555
990.747,444.031
990.915,442.7
991.083,441.052
991.252,439.549
991.42,438.204
991.588,437.059
991.756,435.883
991.924,434.52
992.092,433.175
992.261,431.987
992.429,430.626
992.597,429.398
992.765,428.016
992.933,426.492
993.101,424.742
993.269,423.318
993.437,421.897
993.605,420.646
993.773,419.513
993.941,417.786
994.109,416.455
994.277,414.967
994.444,413.567
994.612,412.226
994.78,411.125
994.948,409.536
995.116,408.218
995.284,406.493
995.451,405.259
995.619,404.001
995.787,402.56
995.955,401.342
996.122,400.272
996.29,399.079
996.458,397.779
996.625,396.644
996.793,395.369
996.961,393.912
997.128,392.403
997.296,391.206
997.463,389.945
997.631,388.698
997.798,387.663
997.966,386.549
998.133,385.336
998.301,384.398
998.468,383.366
998.636,382.281
998.803,380.944
998.971,379.806
999.138,378.605
999.305,377.496
999.473,376.665
999.64,375.634
999.807,374.457
999.975,373.448
1000.14,372.322
1000.31,370.973
1000.48,370.024
1000.64,368.686
1000.81,367.316
1000.98,366.459
1001.15,365.444
1001.31,363.926
1001.48,362.915
1001.65,361.534
1001.81,360.184
1001.98,359.146
1002.15,358.253
1002.32,357.173
1002.48,356.255
1002.65,355.014
1002.82,353.654
1002.98,352.492
1003.15,351.352
1003.32,350.161
1003.48,349.025
1003.65,348.053
1003.82,346.602
1003.98,345.526
1004.15,344.205
1004.32,343.014
1004.49,341.621
1004.65,340.606
1004.82,339.404
1004.99,338.068
1005.15,337.295
1005.32,336.212
1005.49,334.832
1005.65,333.769
1005.82,332.344
1005.99,331.42
1006.15,330.209
1006.32,328.726
1006.49,327.7
1006.65,326.491
1006.82,325.195
1006.99,324.023
1007.15,322.911
1007.32,321.617
1007.49,320.244
1007.65,319.26
1007.82,318.195
1007.98,317.359
1008.15,316.43
1008.32,315.415
1008.48,314.441
1008.65,313.471
1008.82,312.598
1008.98,311.743
1009.15,310.907
1009.32,309.98
1009.48,308.97
1009.65,308.183
1009.81,307.252
1009.98,306.354
1010.15,305.278
1010.31,304.227
1010.48,302.837
1010.65,301.933
1010.81,300.964
1010.98,300.149
1011.14,298.922
1011.31,297.982
1011.48,296.939
1011.64,295.942
1011.81,294.725
1011.97,293.904
1012.14,292.872
1012.31,291.722
1012.47,290.597
1012.64,289.369
1012.8,288.318
1012.97,287.168
1013.14,285.91
1013.3,285.078
1013.47,283.912
1013.63,283.07
1013.8,282.072
1013.97,281.045
1014.13,280.309
1014.3,279.036
1014.46,277.943
1014.63,276.676
1014.79,275.936
1014.96,275.19
1015.13,274.464
1015.29,273.561
1015.46,272.454
1015.62,271.449
1015.79,270.412
1015.95,269.621
1016.12,268.681
1016.29,267.785
1016.45,266.937
1016.62,265.817
1016.78,264.889
1016.95,263.943
1017.11,263.064
1017.28,262.167
1017.44,261.343
1017.61,260.548
1017.78,259.629
1017.94,258.625
1018.11,257.979
1018.27,257.019
1018.44,256.08
1018.6,255.162
1018.77,254.119
1018.93,253.259
1019.1,252.053
1019.26,250.834
1019.43,249.854
1019.59,248.9
1019.76,247.885
1019.92,246.912
1020.09,246.178
1020.25,245.311
1020.42,244.403
1020.59,243.408
1020.75,242.305
1020.92,241.505
1021.08,240.444
1021.25,239.787
1021.41,239.495
1021.58,238.718
1021.74,237.838
1021.91,236.814
1022.07,236.044
1022.24,235.173
1022.4,234.531
1022.57,233.612
1022.73,232.771
1022.89,231.698
1023.06,231.076
1023.22,230.158
1023.39,229.322
1023.55,228.555
1023.72,227.817
1023.88,227.205
1024.05,226.405
1024.21,225.708
1024.38,224.919
1024.54,224.211
1024.71,223.588
1024.87,222.627
1025.04,221.572
1025.2,220.668
1025.37,220.075
1025.53,219.459
1025.7,218.552
1025.86,217.646
1026.02,216.588
1026.19,215.767
1026.35,215.182
1026.52,214.56
1026.68,213.985
1026.85,213.253
1027.01,212.797
1027.18,212.054
1027.34,211.651
1027.5,203.752
1027.67,201.172
1027.83,224.642
1028,194.537
1028.16,190.891
1028.33,197.363
1028.49,219.481
1028.65,193.349
1028.82,173.688
1028.98,185.525
1029.15,166.234
1029.31,172.992
1029.48,179.382
1029.64,170.002
1029.8,253.969
1029.97,193.39
1030.13,236.151
1030.3,179.504
1030.46,167.626
1030.62,211.576
1030.79,157.632
1030.95,145.017
1031.12,136.538
1031.28,208.053
1031.44,216.163
1031.61,225.092
1031.77,176.842
1031.94,165.619
1032.1,189.58
1032.26,163.326
1032.43,176.883
1032.59,172.664
1032.76,186.345
1032.92,223.372
1033.08,159.844
1033.25,175.572
1033.41,184.952
1033.57,195.11
1033.74,163.448
1033.9,175.818
1034.07,221.775
1034.23,199.616
1034.39,139.774
1034.56,238.322
1034.72,159.393
1034.88,174.958
1035.05,166.234
1035.21,148.58
1035.37,171.599
1035.54,130.026
1035.7,131.5
1035.86,167.421
1036.03,168.978
1036.19,158.533
1036.35,125.643
1036.52,178.112
1036.68,181.307
1036.84,177.907
1037.01,141.207
1037.17,127.568
1037.33,170.002
1037.5,157.264
1037.66,179.382
1037.82,212.477
1037.99,189.703
1038.15,160.049
1038.31,162.302
1038.48,143.46
1038.64,123.39
1038.8,170.371
1038.97,124.045
1039.13,165.128
1039.29,132.155
1039.46,190.4
1039.62,157.468
1039.78,149.686
1039.95,167.012
1040.11,158.738
1040.27,171.476
1040.43,157.059
1040.6,149.973
1040.76,146.737
1040.92,146.778
1041.09,162.302
1041.25,143.993
1041.41,136.948
1041.57,158.492
1041.74,182.249
1041.9,171.476
1042.06,139.487
1042.23,130.804
1042.39,129.329
1042.55,144.976
1042.71,179.627
1042.88,157.386
1043.04,169.306
1043.2,125.766
1043.36,216.204
1043.53,157.632
1043.69,164.349
EndSpectrumFile,RAW DATA
SpectrumFile,DIFF DATA
Version,1.000000
Location,home
Customer,rudolf
SampleInfo,
GPSData,51.118477,-114.185388,1161.000000,70032,71211
SystemTime,2011,12,7,0,3,39,718
Pipe km,0.000000
Pre-Dilution Factor,1.000000
Freeform Info,
Concentration,1079.036124
CalibrationName,USB4000 dark
Unique Calibration File ID,20110323-0226570968-TESTBOX2-7E963C-00008931
CalibrationWavelength,700.000000
CalibrationType,2,0.000000,0.616679
CalibrationRSquared,1.000000
CalibrationConcentrations [ppm],2,0.000000,10.000000
CalibrationCounts,2,0.000000,16.215900
CalibrationWarnLow,0.000000
CalibrationWarnHigh,10.000000
CalibrationErrorLow,0.000000
CalibrationErrorHigh,0.000000
Spectrometer Name,USB4000
Spectrometer Serial,USB4H02759
IntegrationTime [ms],50.000000
AveragedSpectra,50
BoxcarWidth,100
WavelengthRange [nm],346.775360,1043.690197
IntensityRange [counts],-12.359491,4314.210672
WavelengthCount,3648
Wavelength [nm],Intensity [counts]
346.775,-11.5403
346.991,-11.5403
347.206,-11.5403
347.421,-12.3595
347.637,-9.73809
347.852,26.5519
348.067,14.5099
348.282,18.9335
348.498,20.5309
348.713,16.8445
348.928,16.1482
349.143,22.8656
349.358,18.7696
349.574,17.1313
349.789,16.1892
350.004,16.7626
350.219,13.7726
350.434,25.7737
350.649,28.477
350.864,28.3951
351.079,23.7257
351.295,33.0235
351.51,9.96337
351.725,21.2682
351.94,10.1682
352.155,33.7198
352.37,39.4541
352.585,11.1512
352.8,18.0733
353.015,29.1324
353.23,10.9874
353.445,21.6368
353.66,7.38293
353.875,22.0464
354.09,25.0364
354.305,12.0933
354.52,16.2302
354.735,12.0523
354.949,13.404
355.164,26.3062
355.379,28.8456
355.594,22.2102
355.809,19.1792
356.024,15.7386
356.239,7.46485
356.453,27.1253
356.668,10.7416
356.883,21.9235
357.098,23.9715
357.313,25.6098
357.527,13.8135
357.742,20.3261
357.957,17.3361
358.172,13.322
358.386,21.3501
358.601,32.0814
358.816,18.4829
359.03,23.8486
359.245,17.0903
359.46,26.6338
359.674,7.42389
359.889,15.8206
360.104,18.2372
360.318,38.3892
360.533,15.5338
360.748,10.4139
360.962,32.4501
361.177,27.3711
361.391,32.4501
361.606,24.0944
361.82,9.92241
362.035,23.6028
362.25,30.7707
362.464,25.3231
362.679,34.1704
362.893,26.6338
363.108,27.7807
363.322,14.4689
363.536,8.03828
363.751,14.7966
363.965,17.3361
364.18,18.8516
364.394,15.1242
364.609,18.1143
364.823,19.1383
365.037,9.51281
365.252,15.5748
365.466,28.477
365.68,27.2073
365.895,28.1493
366.109,19.9575
366.323,37.7338
366.538,30.7298
366.752,12.7486
366.966,16.7217
367.181,17.5409
367.395,9.55377
367.609,41.2563
367.823,25.7737
368.038,30.3611
368.252,25.0079
368.466,25.2571
368.68,25.5027
368.894,25.7364
369.109,26.0343
369.323,26.3019
369.537,26.4011
369.751,26.4828
369.965,26.5904
370.179,26.7029
370.393,26.8429
370.607,26.9943
370.822,27.1904
371.036,27.3285
371.25,27.5296
371.464,27.6617
371.678,27.7799
371.892,27.949
372.106,28.0743
372.32,28.089
372.534,28.1542
372.748,28.2353
372.962,28.2879
373.176,28.4856
373.39,28.6435
373.604,28.7829
373.818,28.864
374.031,28.9164
374.245,29.0786
374.459,29.1546
374.673,29.3111
374.887,29.4851
375.101,29.654
375.315,29.9118
375.529,29.9778
375.742,30.1264
375.956,30.2916
376.17,30.4282
376.384,30.6674
376.598,30.8217
376.811,30.9768
377.025,31.1652
377.239,31.3552
377.453,31.5435
377.666,31.8194
377.88,32.0417
378.094,32.1986
378.307,32.4309
378.521,32.5976
378.735,32.8191
378.948,32.9948
379.162,33.1912
379.376,33.4178
379.589,33.717
379.803,34.0181
380.016,34.2048
380.23,34.3016
380.444,34.5192
380.657,34.7369
380.871,35.0001
381.084,35.1803
381.298,35.4786
381.511,35.7284
381.725,35.9559
381.938,36.1596
382.152,36.4272
382.365,36.6994
382.579,36.824
382.792,37.01
383.006,37.1924
383.219,37.3915
383.433,37.7811
383.646,38.0523
383.859,38.261
384.073,38.5371
384.286,38.7774
384.5,39.0135
384.713,39.2611
384.926,39.5866
385.14,39.933
385.353,40.2167
385.566,40.5482
385.779,40.8761
385.993,41.1687
386.206,41.4795
386.419,41.7906
386.633,42.1201
386.846,42.4393
387.059,42.6555
387.272,42.9507
387.485,43.2165
387.699,43.4853
387.912,43.719
388.125,44.0137
388.338,44.3739
388.551,44.723
388.764,45.1167
388.978,45.4707
389.191,45.7236
389.404,45.9785
389.617,46.2996
389.83,46.6181
390.043,46.9534
390.256,47.3326
390.469,47.6242
390.682,47.9227
390.895,48.3068
391.108,48.6961
391.321,49.1633
391.534,49.4865
391.747,49.9601
391.96,50.3265
392.173,50.7683
392.386,51.1624
392.599,51.6488
392.812,52.016
393.025,52.3967
393.238,52.6176
393.451,53.0724
393.663,53.4514
393.876,53.913
394.089,54.282
394.302,54.6535
394.515,55.0301
394.728,55.4242
394.941,55.9705
395.153,56.3773
395.366,56.7724
395.579,57.162
395.792,57.6454
396.004,58.0747
396.217,58.5734
396.43,58.9502
396.643,59.3616
396.855,59.7433
397.068,60.2374
397.281,60.7306
397.493,61.1222
397.706,61.5437
397.919,61.9626
398.131,62.3893
398.344,62.7991
398.557,63.2444
398.769,63.6572
398.982,64.1184
399.194,64.6513
399.407,65.1862
399.619,65.6636
399.832,66.1751
400.045,66.685
400.257,67.139
400.47,67.5683
400.682,68.1071
400.895,68.6435
401.107,69.1933
401.319,69.7143
401.532,70.2093
401.744,70.6633
401.957,71.2186
402.169,71.8461
402.382,72.395
402.594,72.9126
402.806,73.5077
403.019,74.065
403.231,74.5414
403.444,75.134
403.656,75.7207
403.868,76.3208
404.081,76.9309
404.293,77.5704
404.505,78.2186
404.717,78.7963
404.93,79.4643
405.142,80.0661
405.354,80.6919
405.566,81.2551
405.779,81.8469
405.991,82.5923
406.203,83.2747
406.415,83.8785
406.627,84.5569
406.84,85.2832
407.052,86.0977
407.264,86.7412
407.476,87.4677
407.688,88.1094
407.9,88.8892
408.112,89.6031
408.324,90.3428
408.537,91.0827
408.749,91.8495
408.961,92.6567
409.173,93.4437
409.385,94.2264
409.597,94.92
409.809,95.6626
410.021,96.4808
410.233,97.2623
410.445,98.0564
410.657,98.8475
410.869,99.6732
411.081,100.538
411.292,101.38
411.504,102.188
411.716,103.096
411.928,103.935
412.14,104.786
412.352,105.686
412.564,106.683
412.776,107.544
412.988,108.425
413.199,109.309
413.411,110.194
413.623,110.974
413.835,111.905
414.047,112.799
414.258,113.674
414.47,114.674
414.682,115.584
414.894,116.575
415.105,117.558
415.317,118.541
415.529,119.553
415.74,120.605
415.952,121.652
416.164,122.665
416.375,123.837
416.587,124.926
416.799,125.997
417.01,127.12
417.222,128.276
417.433,129.29
417.645,130.389
417.857,131.443
418.068,132.544
418.28,133.838
418.491,134.871
418.703,136.044
418.914,137.293
419.126,138.425
419.337,139.624
419.549,140.721
419.76,141.873
419.972,143.107
420.183,144.36
420.394,145.455
420.606,146.747
420.817,147.959
421.029,149.092
421.24,150.374
421.451,151.537
421.663,152.844
421.874,154.083
422.085,155.342
422.297,156.586
422.508,157.787
422.719,159.06
422.931,160.475
423.142,161.858
423.353,163.204
423.565,164.561
423.776,165.902
423.987,167.326
424.198,168.709
424.409,170.132
424.621,171.536
424.832,172.953
425.043,174.318
425.254,175.856
425.465,177.341
425.676,178.826
425.888,180.228
426.099,181.539
426.31,182.971
426.521,184.462
426.732,185.817
426.943,187.147
427.154,188.587
427.365,190.047
427.576,191.51
427.787,193.092
427.998,194.598
428.209,196.053
428.42,197.473
428.631,199.024
428.842,200.543
429.053,202.165
429.264,203.693
429.475,205.202
429.686,206.755
429.897,208.299
430.108,209.887
430.319,211.501
430.529,213.055
430.74,214.671
430.951,216.253
431.162,217.863
431.373,219.372
431.584,221.004
431.794,222.608
432.005,224.332
432.216,225.994
432.427,227.689
432.637,229.327
432.848,230.895
433.059,232.619
433.27,234.474
433.48,236.136
433.691,237.753
433.902,239.444
434.112,241.192
434.323,242.849
434.534,244.605
434.744,246.315
434.955,248.007
435.166,249.666
435.376,251.354
435.587,253.059
435.797,254.872
436.008,256.602
436.218,258.523
436.429,260.294
436.64,262.243
436.85,264.067
437.061,265.892
437.271,267.713
437.482,269.596
437.692,271.564
437.902,273.472
438.113,275.323
438.323,277.212
438.534,279.111
438.744,281.076
438.955,282.97
439.165,284.891
439.375,286.864
439.586,288.829
439.796,290.866
440.006,292.86
440.217,294.863
440.427,296.831
440.637,298.885
440.848,300.922
441.058,303.105
441.268,305.223
441.479,307.269
441.689,309.307
441.899,311.357
442.109,313.448
442.319,315.504
442.53,317.675
442.74,319.904
442.95,322.123
443.16,324.268
443.37,326.385
443.58,328.577
443.791,330.893
444.001,333.229
444.211,335.484
444.421,337.689
444.631,339.997
444.841,342.208
445.051,344.399
445.261,346.63
445.471,348.617
445.681,350.885
445.891,353.18
446.101,355.524
446.311,357.922
446.521,360.259
446.731,362.577
446.941,365.025
447.151,367.482
447.361,369.828
447.571,372.247
447.781,374.811
447.991,377.229
448.201,379.553
448.41,381.997
448.62,384.528
448.83,386.962
449.04,389.474
449.25,391.986
449.46,394.527
449.669,397.107
449.879,399.583
450.089,402.246
450.299,404.905
450.508,407.498
450.718,410.157
450.928,412.772
451.138,415.342
451.347,417.956
451.557,420.536
451.767,423.199
451.976,425.853
452.186,428.632
452.396,431.325
452.605,434.087
452.815,436.84
453.025,439.586
453.234,442.223
453.444,444.985
453.653,447.782
453.863,450.694
454.072,453.47
454.282,456.362
454.491,459.224
454.701,462.115
454.911,464.86
455.12,467.781
455.329,470.697
455.539,473.596
455.748,476.575
455.958,479.598
456.167,482.582
456.377,485.477
456.586,488.431
456.795,491.472
457.005,494.504
457.214,497.67
457.424,500.793
457.633,503.888
457.842,507.013
458.052,510.101
458.261,513.196
458.47,516.371
458.679,519.271
458.889,522.391
459.098,525.594
459.307,528.681
459.517,531.846
459.726,535.057
459.935,538.351
460.144,541.675
460.353,545.045
460.563,548.247
460.772,551.655
460.981,555.039
461.19,558.307
461.399,561.588
461.608,565.047
461.817,568.538
462.026,571.963
462.236,575.36
462.445,578.698
462.654,582.354
462.863,585.706
463.072,589.402
463.281,593.026
463.49,596.66
463.699,600.413
463.908,604.03
464.117,607.707
464.326,611.434
464.535,615.138
464.744,619.055
464.952,622.923
465.161,626.808
465.37,630.554
465.579,634.387
465.788,638.231
465.997,642.092
466.206,646.014
466.415,649.96
466.623,654.016
466.832,658.028
467.041,662.001
467.25,666.134
467.459,669.999
467.667,673.971
467.876,678.219
468.085,682.639
468.294,686.928
468.502,691.22
468.711,695.54
468.92,699.972
469.128,704.44
469.337,708.935
469.546,713.205
469.754,717.847
469.963,722.096
470.172,726.588
470.38,731.225
470.589,735.661
470.798,740.245
471.006,744.846
471.215,749.24
471.423,754.015
471.632,758.669
471.84,763.469
472.049,768.152
472.257,772.99
472.466,777.836
472.674,782.603
472.883,787.438
473.091,792.335
473.3,797.191
473.508,802.17
473.716,807.026
473.925,811.892
474.133,816.859
474.342,821.721
474.55,826.776
474.758,831.941
474.967,836.901
475.175,842.03
475.383,846.991
475.592,852.163
475.8,857.34
476.008,862.327
476.217,867.456
476.425,872.667
476.633,877.947
476.841,883.243
477.05,888.586
477.258,894.052
477.466,899.366
477.674,904.955
477.882,910.33
478.091,915.765
478.299,921.004
478.507,926.498
478.715,931.767
478.923,937.292
479.131,942.731
479.339,948.277
479.547,953.543
479.755,958.788
479.963,964.359
480.171,969.875
480.38,975.371
480.588,980.729
480.796,986.123
481.004,991.648
481.212,997.065
481.42,1002.66
481.627,1008.08
481.835,1013.8
482.043,1019.39
482.251,1024.89
482.459,1030.4
482.667,1036.08
482.875,1041.67
483.083,1047.13
483.291,1052.73
483.499,1058.21
483.706,1063.88
483.914,1069.58
484.122,1075.08
484.33,1080.74
484.538,1086.25
484.745,1091.78
484.953,1097.23
485.161,1102.8
485.369,1108.37
485.576,1113.9
485.784,1119.37
485.992,1124.8
486.199,1130.33
486.407,1135.92
486.615,1141.39
486.822,1146.92
487.03,1152.38
487.238,1157.98
487.445,1163.68
487.653,1169.14
487.861,1174.57
488.068,1180.02
488.276,1185.44
488.483,1190.83
488.691,1196.2
488.898,1201.59
489.106,1206.94
489.313,1212.4
489.521,1217.74
489.728,1222.95
489.936,1228.27
490.143,1233.83
490.351,1239.02
490.558,1244.33
490.766,1249.71
490.973,1254.89
491.18,1260.17
491.388,1265.34
491.595,1270.46
491.802,1275.67
492.01,1280.79
492.217,1285.73
492.424,1290.87
492.632,1295.93
492.839,1300.93
493.046,1306.12
493.254,1311.15
493.461,1316.27
493.668,1321.39
493.875,1326.34
494.083,1331.21
494.29,1336.18
494.497,1341.11
494.704,1346.1
494.911,1350.79
495.119,1355.7
495.326,1360.45
495.533,1365.28
495.74,1369.95
495.947,1374.72
496.154,1379.42
496.361,1384.07
496.568,1388.66
496.775,1393.39
496.982,1398.03
497.19,1402.63
497.397,1407.2
497.604,1411.71
497.811,1416.19
498.018,1420.69
498.225,1425.17
498.432,1429.77
498.638,1434.12
498.845,1438.56
499.052,1442.75
499.259,1447.03
499.466,1451.37
499.673,1455.56
499.88,1459.7
500.087,1463.79
500.294,1467.83
500.501,1472.22
500.707,1476.3
500.914,1480.3
501.121,1484.38
501.328,1488.4
501.535,1492.35
501.741,1496.21
501.948,1500.1
502.155,1503.79
502.362,1507.52
502.568,1511.38
502.775,1514.98
502.982,1518.76
503.188,1522.4
503.395,1526.14
503.602,1529.7
503.808,1533.35
504.015,1536.81
504.222,1540.48
504.428,1543.88
504.635,1547.43
504.841,1550.75
505.048,1554.28
505.254,1557.57
505.461,1560.74
505.668,1563.9
505.874,1567.08
506.081,1570.26
506.287,1573.34
506.494,1576.31
506.7,1579.38
506.907,1582.29
507.113,1585.21
507.319,1588.12
507.526,1591.03
507.732,1593.85
507.939,1596.6
508.145,1599.34
508.351,1602.02
508.558,1604.53
508.764,1607.18
508.97,1609.59
509.177,1612.34
509.383,1614.89
509.589,1617.22
509.796,1619.49
510.002,1621.84
510.208,1624.12
510.414,1626.21
510.621,1628.32
510.827,1630.5
511.033,1632.51
511.239,1634.67
511.445,1636.45
511.652,1638.58
511.858,1640.43
512.064,1642.31
512.27,1644.33
512.476,1646.09
512.682,1647.85
512.888,1649.7
513.095,1651.22
513.301,1652.88
513.507,1654.36
513.713,1655.99
513.919,1657.34
514.125,1658.75
514.331,1660.13
514.537,1661.56
514.743,1662.75
514.949,1664.03
515.155,1665.18
515.361,1666.45
515.567,1667.66
515.773,1668.74
515.978,1669.82
516.184,1670.83
516.39,1671.61
516.596,1672.7
516.802,1673.47
517.008,1674.48
517.214,1675.09
517.419,1675.83
517.625,1676.63
517.831,1677.41
518.037,1677.86
518.243,1678.35
518.448,1678.91
518.654,1679.42
518.86,1679.78
519.066,1680.27
519.271,1680.51
519.477,1680.85
519.683,1681.14
519.888,1681.5
520.094,1681.69
520.3,1682
520.505,1682.05
520.711,1682.23
520.917,1682.14
521.122,1682.39
521.328,1682.6
521.533,1682.42
521.739,1682.3
521.944,1682.11
522.15,1682.09
522.356,1681.95
522.561,1681.75
522.767,1681.64
522.972,1681.36
523.177,1681.15
523.383,1680.65
523.588,1680.3
523.794,1679.89
523.999,1679.65
524.205,1679.05
524.41,1678.45
524.615,1677.96
524.821,1677.46
525.026,1676.87
525.232,1676.1
525.437,1675.2
525.642,1674.5
525.847,1673.76
526.053,1673.19
526.258,1672.36
526.463,1671.55
526.669,1670.67
526.874,1669.87
527.079,1668.89
527.284,1667.96
527.49,1666.93
527.695,1665.9
527.9,1664.8
528.105,1663.71
528.31,1662.56
528.515,1661.49
528.721,1660.13
528.926,1658.94
529.131,1657.71
529.336,1656.46
529.541,1655.22
529.746,1653.93
529.951,1652.43
530.156,1651.27
530.361,1649.77
530.566,1648.37
530.771,1646.88
530.976,1645.48
531.181,1643.94
531.386,1642.58
531.591,1640.9
531.796,1639.29
532.001,1637.67
532.206,1635.9
532.411,1634.19
532.616,1632.39
532.821,1630.61
533.025,1628.91
533.23,1627.18
533.435,1625.34
533.64,1623.51
533.845,1621.74
534.05,1619.73
534.254,1617.83
534.459,1615.82
534.664,1613.94
534.869,1611.85
535.073,1609.76
535.278,1607.72
535.483,1605.63
535.688,1603.51
535.892,1601.39
536.097,1599.12
536.302,1597.19
536.506,1594.97
536.711,1592.88
536.916,1590.69
537.12,1588.52
537.325,1586.24
537.529,1584.02
537.734,1581.71
537.938,1579.46
538.143,1577.04
538.348,1574.71
538.552,1572.31
538.757,1569.91
538.961,1567.47
539.166,1565.07
539.37,1562.51
539.575,1559.98
539.779,1557.35
539.983,1554.69
540.188,1552
540.392,1549.48
540.597,1546.92
540.801,1544.29
541.005,1541.71
541.21,1539.16
541.414,1536.61
541.618,1534
541.823,1531.21
542.027,1528.59
542.231,1525.89
542.436,1523.24
542.64,1520.47
542.844,1517.78
543.048,1515.05
543.253,1512.19
543.457,1509.5
543.661,1506.73
543.865,1503.77
544.069,1501.02
544.274,1498.13
544.478,1495.4
544.682,1492.42
544.886,1489.53
545.09,1486.5
545.294,1483.64
545.498,1480.56
545.702,1477.63
545.907,1474.64
546.111,1471.55
546.315,1468.49
546.519,1465.46
546.723,1462.43
546.927,1459.54
547.131,1456.57
547.335,1453.43
547.539,1450.22
547.743,1447.18
547.947,1444.05
548.15,1440.98
548.354,1437.92
548.558,1434.81
548.762,1431.69
548.966,1428.67
549.17,1425.49
549.374,1422.45
549.578,1419.3
549.781,1416.29
549.985,1413.19
550.189,1410.21
550.393,1407.09
550.597,1404.11
550.8,1400.95
551.004,1397.88
551.208,1394.78
551.412,1391.67
551.615,1388.53
551.819,1385.51
552.023,1382.42
552.226,1379.35
552.43,1376.3
552.634,1373.24
552.837,1370.11
553.041,1367.12
553.244,1363.96
553.448,1361.02
553.652,1357.92
553.855,1354.88
554.059,1351.8
554.262,1348.88
554.466,1345.99
554.669,1343.12
554.873,1340.19
555.076,1337.31
555.28,1334.34
555.483,1331.61
555.687,1328.54
555.89,1325.82
556.094,1322.93
556.297,1320.2
556.5,1317.48
556.704,1314.76
556.907,1312
557.111,1309.44
557.314,1306.63
557.517,1304.03
557.721,1301.29
557.924,1298.76
558.127,1295.99
558.33,1293.52
558.534,1291.06
558.737,1288.63
558.94,1286.02
559.144,1283.75
559.347,1281.34
559.55,1278.87
559.753,1276.51
559.956,1274.15
560.159,1271.66
560.363,1269.3
560.566,1267.14
560.769,1265.02
560.972,1262.84
561.175,1260.69
561.378,1258.56
561.581,1256.57
561.784,1254.5
561.987,1252.67
562.19,1250.63
562.394,1248.82
562.597,1246.99
562.8,1245.28
563.003,1243.57
563.205,1241.78
563.408,1240.15
563.611,1238.57
563.814,1236.96
564.017,1235.39
564.22,1234.04
564.423,1232.62
564.626,1231.15
564.829,1229.9
565.032,1228.48
565.235,1227.25
565.437,1226.04
565.64,1224.91
565.843,1223.81
566.046,1222.92
566.249,1221.93
566.451,1221.17
566.654,1220.36
566.857,1219.54
567.06,1218.58
567.262,1217.99
567.465,1217.34
567.668,1216.78
567.87,1216.21
568.073,1215.83
568.276,1215.43
568.478,1215.18
568.681,1214.86
568.884,1214.53
569.086,1214.34
569.289,1214.19
569.491,1214.06
569.694,1214.16
569.896,1214.1
570.099,1214.31
570.301,1214.47
570.504,1214.63
570.706,1214.77
570.909,1215.19
571.111,1215.35
571.314,1215.77
571.516,1216.27
571.719,1216.8
571.921,1217.2
572.124,1217.91
572.326,1218.5
572.528,1219.28
572.731,1220.25
572.933,1221.04
573.135,1222.09
573.338,1223.23
573.54,1224.29
573.742,1225.23
573.945,1226.34
574.147,1227.5
574.349,1228.71
574.551,1230.1
574.754,1231.38
574.956,1232.83
575.158,1234.29
575.36,1235.81
575.562,1237.21
575.765,1238.86
575.967,1240.43
576.169,1242.21
576.371,1243.88
576.573,1245.6
576.775,1247.38
576.977,1249.35
577.179,1251.17
577.382,1253.17
577.584,1255.07
577.786,1256.99
577.988,1259.05
578.19,1261.21
578.392,1263.13
578.594,1265.42
578.796,1267.54
578.998,1269.66
579.2,1271.92
579.401,1274.28
579.603,1276.61
579.805,1279.08
580.007,1281.36
580.209,1283.99
580.411,1286.57
580.613,1289.15
580.815,1291.88
581.016,1294.63
581.218,1297.27
581.42,1299.88
581.622,1302.53
581.824,1305.28
582.025,1308
582.227,1310.8
582.429,1313.5
582.631,1316.24
582.832,1319.06
583.034,1321.96
583.236,1324.87
583.437,1327.78
583.639,1330.64
583.841,1333.74
584.042,1336.7
584.244,1339.68
584.446,1342.84
584.647,1346.06
584.849,1349.22
585.05,1352.37
585.252,1355.31
585.453,1358.49
585.655,1361.68
585.856,1364.93
586.058,1368.07
586.259,1371.37
586.461,1374.53
586.662,1377.87
586.864,1381.13
587.065,1384.42
587.267,1387.71
587.468,1391.08
587.67,1394.36
587.871,1397.8
588.072,1401.18
588.274,1404.82
588.475,1408.23
588.676,1411.77
588.878,1415.24
589.079,1418.78
589.28,1422.31
589.481,1425.79
589.683,1429.36
589.884,1433
590.085,1436.43
590.286,1439.93
590.488,1443.52
590.689,1447.04
590.89,1450.64
591.091,1454.29
591.292,1457.85
591.494,1461.48
591.695,1465.06
591.896,1468.64
592.097,1472.25
592.298,1476.07
592.499,1479.77
592.7,1483.41
592.901,1487.14
593.102,1490.89
593.303,1494.55
593.504,1498.28
593.705,1501.96
593.906,1505.62
594.107,1509.2
594.308,1512.99
594.509,1516.71
594.71,1520.42
594.911,1524.02
595.112,1527.74
595.313,1531.37
595.514,1535.05
595.715,1538.71
595.915,1542.37
596.116,1545.89
596.317,1549.74
596.518,1553.33
596.719,1557.16
596.92,1560.77
597.12,1564.38
597.321,1568
597.522,1571.66
597.723,1575.08
597.923,1578.78
598.124,1582.2
598.325,1585.87
598.525,1589.28
598.726,1593.05
598.927,1596.62
599.127,1600.1
599.328,1603.57
599.529,1606.96
599.729,1610.23
599.93,1613.77
600.13,1617.15
600.331,1620.47
600.531,1623.81
600.732,1627.44
600.933,1630.85
601.133,1634.21
601.334,1637.47
601.534,1640.78
601.734,1644.11
601.935,1647.34
602.135,1650.58
602.336,1653.85
602.536,1656.98
602.737,1660.15
602.937,1663.09
603.137,1666.25
603.338,1669.21
603.538,1672.25
603.738,1675.36
603.939,1678.3
604.139,1681.13
604.339,1684.06
604.54,1686.9
604.74,1689.71
604.94,1692.35
605.14,1695.27
605.341,1697.91
605.541,1700.65
605.741,1703.26
605.941,1706.09
606.141,1708.67
606.342,1711.28
606.542,1713.7
606.742,1716.31
606.942,1718.82
607.142,1721.35
607.342,1723.71
607.542,1726.17
607.742,1728.47
607.942,1730.89
608.142,1732.98
608.343,1735.17
608.543,1737.31
608.743,1739.48
608.943,1741.51
609.143,1743.63
609.342,1745.73
609.542,1747.74
609.742,1749.86
609.942,1751.96
610.142,1753.71
610.342,1755.83
610.542,1757.67
610.742,1759.55
610.942,1761.42
611.142,1763.31
611.341,1765.06
611.541,1766.85
611.741,1768.69
611.941,1770.33
612.141,1771.83
612.34,1773.63
612.54,1775.16
612.74,1776.77
612.94,1778.2
613.139,1779.64
613.339,1781.06
613.539,1782.43
613.738,1783.59
613.938,1784.99
614.138,1786.45
614.337,1787.83
614.537,1789.04
614.736,1790.27
614.936,1791.39
615.136,1792.63
615.335,1793.75
615.535,1794.87
615.734,1795.87
615.934,1797
616.133,1798
616.333,1799.15
616.532,1800.13
616.732,1801.31
616.931,1802.35
617.131,1803.42
617.33,1804.36
617.529,1805.32
617.729,1806.27
617.928,1807.24
618.128,1808.22
618.327,1809.11
618.526,1809.91
618.726,1811
618.925,1811.79
619.124,1812.61
619.324,1813.6
619.523,1814.43
619.722,1815.23
619.921,1816.15
620.121,1816.75
620.32,1817.77
620.519,1818.58
620.718,1819.47
620.917,1820.21
621.117,1821.12
621.316,1821.96
621.515,1822.69
621.714,1823.74
621.913,1824.67
622.112,1825.47
622.311,1826.38
622.51,1827.2
622.709,1828.27
622.909,1829.31
623.108,1830.17
623.307,1831.04
623.506,1831.92
623.705,1832.89
623.904,1833.92
624.103,1834.64
624.301,1835.74
624.5,1836.53
624.699,1837.42
624.898,1838.23
625.097,1839.05
625.296,1839.95
625.495,1841.18
625.694,1842
625.893,1843.06
626.091,1843.94
626.29,1845.05
626.489,1846.06
626.688,1847.04
626.887,1847.95
627.085,1849.02
627.284,1850.15
627.483,1851.22
627.682,1852.38
627.88,1853.54
628.079,1854.65
628.278,1855.84
628.476,1856.79
628.675,1858
628.874,1858.97
629.072,1860.07
629.271,1861.2
629.47,1862.42
629.668,1863.63
629.867,1864.74
630.065,1865.83
630.264,1867.07
630.462,1868.26
630.661,1869.37
630.859,1870.66
631.058,1871.85
631.256,1872.91
631.455,1874.19
631.653,1875.47
631.852,1876.81
632.05,1878.07
632.249,1879.43
632.447,1880.7
632.645,1882.01
632.844,1883.44
633.042,1884.84
633.24,1886.12
633.439,1887.54
633.637,1888.96
633.835,1890.5
634.034,1891.96
634.232,1893.49
634.43,1894.98
634.628,1896.49
634.827,1898.03
635.025,1899.62
635.223,1901.06
635.421,1902.61
635.62,1904.13
635.818,1905.68
636.016,1907.34
636.214,1908.9
636.412,1910.33
636.61,1912.11
636.808,1913.56
637.006,1915.17
637.205,1916.73
637.403,1918.4
637.601,1919.97
637.799,1921.71
637.997,1923.33
638.195,1925.11
638.393,1926.92
638.591,1928.8
638.789,1930.33
638.987,1932.14
639.184,1933.84
639.382,1935.76
639.58,1937.69
639.778,1939.69
639.976,1941.42
640.174,1943.37
640.372,1945.34
640.57,1947.22
640.767,1948.96
640.965,1950.75
641.163,1952.58
641.361,1954.44
641.559,1956.28
641.756,1958.25
641.954,1960.15
642.152,1962.13
642.35,1963.99
642.547,1966.03
642.745,1967.94
642.943,1969.95
643.14,1971.9
643.338,1974.02
643.536,1976.03
643.733,1978.1
643.931,1980.06
644.128,1982.2
644.326,1984.22
644.524,1986.38
644.721,1988.22
644.919,1990.39
645.116,1992.28
645.314,1994.53
645.511,1996.52
645.709,1998.83
645.906,2000.75
646.104,2002.91
646.301,2004.98
646.498,2007.21
646.696,2009.19
646.893,2011.31
647.091,2013.3
647.288,2015.51
647.485,2017.59
647.683,2019.6
647.88,2021.67
648.077,2023.94
648.275,2025.91
648.472,2028.01
648.669,2029.98
648.867,2032.16
649.064,2034.2
649.261,2036.43
649.458,2038.56
649.655,2040.48
649.853,2042.4
650.05,2044.71
650.247,2046.66
650.444,2048.66
650.641,2050.55
650.838,2052.49
651.036,2054.42
651.233,2056.5
651.43,2058.44
651.627,2060.38
651.824,2062.29
652.021,2064.42
652.218,2066.21
652.415,2068.19
652.612,2070
652.809,2071.94
653.006,2073.79
653.203,2075.75
653.4,2077.51
653.597,2079.49
653.794,2081.29
653.991,2083.28
654.187,2085.06
654.384,2086.93
654.581,2088.85
654.778,2090.64
654.975,2092.33
655.172,2094.29
655.369,2096.03
655.565,2097.9
655.762,2099.78
655.959,2101.7
656.156,2103.32
656.352,2105.12
656.549,2106.73
656.746,2108.45
656.943,2110.05
657.139,2111.61
657.336,2113.18
657.533,2114.86
657.729,2116.5
657.926,2118.09
658.122,2119.69
658.319,2121.21
658.516,2122.58
658.712,2124.21
658.909,2125.74
659.105,2127.37
659.302,2128.73
659.498,2130.22
659.695,2131.58
659.891,2133.04
660.088,2134.26
660.284,2135.43
660.481,2136.62
660.677,2138.04
660.874,2139.19
661.07,2140.33
661.266,2141.68
661.463,2142.67
661.659,2143.81
661.856,2144.93
662.052,2146.02
662.248,2147.12
662.444,2147.99
662.641,2149.06
662.837,2150.01
663.033,2150.85
663.23,2151.74
663.426,2152.79
663.622,2153.54
663.818,2154.51
664.014,2155.26
664.211,2156.1
664.407,2156.93
664.603,2157.66
664.799,2158.46
664.995,2159.26
665.191,2159.69
665.387,2160.36
665.584,2160.83
665.78,2161.53
665.976,2162.02
666.172,2162.49
666.368,2162.98
666.564,2163.52
666.76,2164
666.956,2164.28
667.152,2164.66
667.348,2164.92
667.544,2165.1
667.74,2165.36
667.936,2165.54
668.131,2165.98
668.327,2165.91
668.523,2166.13
668.719,2166.12
668.915,2166.17
669.111,2166.07
669.307,2165.99
669.502,2165.9
669.698,2165.87
669.894,2165.75
670.09,2165.77
670.285,2165.56
670.481,2165.43
670.677,2165.12
670.873,2164.93
671.068,2164.58
671.264,2164.15
671.46,2163.67
671.655,2163.19
671.851,2162.67
672.047,2162.03
672.242,2161.37
672.438,2160.61
672.633,2159.76
672.829,2159.11
673.025,2158.32
673.22,2157.47
673.416,2156.55
673.611,2155.72
673.807,2154.74
674.002,2153.86
674.198,2152.84
674.393,2151.87
674.589,2150.74
674.784,2149.57
674.979,2148.33
675.175,2147.01
675.37,2145.72
675.566,2144.4
675.761,2142.98
675.956,2141.66
676.152,2140.12
676.347,2138.7
676.542,2137.19
676.738,2135.61
676.933,2134.04
677.128,2132.44
677.323,2130.7
677.519,2128.93
677.714,2127.16
677.909,2125.28
678.104,2123.3
678.299,2121.35
678.494,2119.31
678.69,2117.31
678.885,2115.2
679.08,2113.08
679.275,2111.04
679.47,2108.87
679.665,2106.62
679.86,2104.22
680.055,2101.9
680.25,2099.66
680.445,2097.38
680.64,2094.99
680.835,2092.42
681.03,2089.99
681.225,2087.38
681.42,2084.84
681.615,2082.14
681.81,2079.44
682.005,2076.6
682.2,2073.92
682.395,2071.17
682.59,2068.45
682.785,2065.62
682.979,2062.76
683.174,2059.74
683.369,2056.9
683.564,2053.81
683.759,2050.78
683.953,2047.55
684.148,2044.61
684.343,2041.61
684.538,2038.62
684.732,2035.25
684.927,2032.09
685.122,2028.6
685.316,2025.35
685.511,2022.05
685.706,2018.66
685.9,2015.3
686.095,2011.98
686.29,2008.4
686.484,2005.03
686.679,2001.4
686.873,1997.88
687.068,1994.43
687.262,1990.97
687.457,1987.38
687.651,1983.9
687.846,1980.42
688.04,1977.01
688.235,1973.25
688.429,1969.69
688.624,1965.83
688.818,1962.1
689.013,1958.48
689.207,1954.97
689.401,1951.15
689.596,1947.5
689.79,1943.7
689.984,1940.09
690.179,1936.36
690.373,1932.64
690.567,1928.87
690.762,1925.26
690.956,1921.36
691.15,1917.7
691.344,1913.85
691.538,1910.34
691.733,1906.52
691.927,1902.84
692.121,1899.13
692.315,1895.41
692.509,1891.68
692.703,1888
692.898,1884.32
693.092,1880.58
693.286,1876.64
693.48,1872.87
693.674,1869.07
693.868,1865.35
694.062,1861.76
694.256,1858.08
694.45,1854.38
694.644,1850.75
694.838,1846.97
695.032,1843.17
695.226,1839.42
695.42,1835.74
695.614,1831.9
695.808,1828.25
696.002,1824.58
696.195,1820.96
696.389,1817.37
696.583,1813.8
696.777,1809.98
696.971,1806.28
697.165,1802.71
697.358,1799.06
697.552,1795.35
697.746,1791.81
697.94,1788.06
698.133,1784.49
698.327,1780.77
698.521,1777.38
698.715,1773.77
698.908,1770.32
699.102,1766.81
699.296,1763.43
699.489,1760.06
699.683,1756.64
699.876,1753.22
700.07,1749.75
700.264,1746.42
700.457,1742.99
700.651,1739.62
700.844,1736.33
701.038,1733.1
701.231,1729.74
701.425,1726.34
701.618,1723.31
701.812,1719.99
702.005,1716.88
702.199,1713.75
702.392,1710.59
702.586,1707.22
702.779,1704.11
702.972,1700.99
703.166,1697.88
703.359,1694.84
703.552,1691.74
703.746,1688.67
703.939,1685.74
704.132,1682.57
704.326,1679.8
704.519,1676.97
704.712,1674.16
704.905,1671.3
705.099,1668.49
705.292,1665.66
705.485,1662.87
705.678,1660.03
705.871,1657.29
706.064,1654.55
706.258,1651.85
706.451,1649.1
706.644,1646.61
706.837,1643.9
707.03,1641.4
707.223,1638.69
707.416,1636.26
707.609,1633.64
707.802,1631.2
707.995,1628.71
708.188,1626.36
708.381,1623.91
708.574,1621.51
708.767,1619.21
708.96,1616.83
709.153,1614.48
709.346,1612.38
709.539,1610.01
709.732,1607.89
709.924,1605.55
710.117,1603.4
710.31,1601.28
710.503,1599.21
710.696,1597.26
710.889,1595.32
711.081,1593.53
711.274,1591.68
711.467,1589.91
711.66,1588.16
711.852,1586.31
712.045,1584.66
712.238,1582.91
712.43,1581.27
712.623,1579.55
712.816,1577.98
713.008,1576.31
713.201,1574.75
713.394,1573.13
713.586,1571.79
713.779,1570.41
713.971,1569.1
714.164,1567.98
714.356,1566.75
714.549,1565.4
714.741,1564.44
714.934,1563.16
715.126,1562.18
715.319,1561.14
715.511,1560.12
715.704,1559.18
715.896,1558.19
716.088,1557.41
716.281,1556.76
716.473,1555.97
716.666,1555.29
716.858,1554.64
717.05,1554.24
717.243,1553.71
717.435,1553.25
717.627,1552.86
717.819,1552.44
718.012,1552.05
718.204,1551.71
718.396,1551.44
718.588,1551.13
718.781,1550.87
718.973,1550.83
719.165,1550.55
719.357,1550.67
719.549,1550.71
719.741,1551
719.934,1551.13
720.126,1551.43
720.318,1551.78
720.51,1552.19
720.702,1552.65
720.894,1553.35
721.086,1553.9
721.278,1554.61
721.47,1555.3
721.662,1556.02
721.854,1556.92
722.046,1557.84
722.238,1558.83
722.43,1560.03
722.622,1561.21
722.814,1562.57
723.005,1563.75
723.197,1565.09
723.389,1566.44
723.581,1568.06
723.773,1569.68
723.965,1571.39
724.156,1573.17
724.348,1574.88
724.54,1576.64
724.732,1578.51
724.923,1580.59
725.115,1582.85
725.307,1584.99
725.499,1587.36
725.69,1589.59
725.882,1592.02
726.074,1594.45
726.265,1597.09
726.457,1599.84
726.648,1602.64
726.84,1605.26
727.032,1608.38
727.223,1611.27
727.415,1614.4
727.606,1617.51
727.798,1620.88
727.989,1624.16
728.181,1627.68
728.372,1631.23
728.564,1634.84
728.755,1638.48
728.947,1642.43
729.138,1646.22
729.329,1650.18
729.521,1654.13
729.712,1658.44
729.904,1662.63
730.095,1667.14
730.286,1671.46
730.478,1676.11
730.669,1680.76
730.86,1685.59
731.051,1690.29
731.243,1695.34
731.434,1700.43
731.625,1705.49
731.816,1710.79
732.008,1716.28
732.199,1721.82
732.39,1727.5
732.581,1733.06
732.772,1739.01
732.963,1744.86
733.154,1750.84
733.346,1757.01
733.537,1763.47
733.728,1769.87
733.919,1776.44
734.11,1783.02
734.301,1789.88
734.492,1796.75
734.683,1803.73
734.874,1810.83
735.065,1818
735.256,1825.23
735.447,1832.8
735.638,1840.47
735.829,1848.12
736.019,1855.85
736.21,1864.05
736.401,1872.12
736.592,1880.39
736.783,1888.71
736.974,1897.31
737.164,1905.85
737.355,1914.7
737.546,1923.37
737.737,1932.42
737.928,1941.37
738.118,1950.6
738.309,1959.82
738.5,1969.33
738.69,1978.97
738.881,1988.65
739.072,1998.36
739.262,2008.41
739.453,2018.16
739.644,2028.32
739.834,2038.56
740.025,2049.2
740.215,2059.57
740.406,2069.96
740.596,2080.45
740.787,2091.39
740.978,2102.24
741.168,2113.32
741.358,2124.53
741.549,2135.93
741.739,2147.23
741.93,2158.93
742.12,2170.49
742.311,2182.3
742.501,2194.12
742.691,2206.26
742.882,2218.25
743.072,2230.25
743.263,2242.38
743.453,2254.72
743.643,2267.09
743.833,2279.5
744.024,2292.14
744.214,2305.13
744.404,2317.73
744.594,2330.78
744.785,2343.65
744.975,2356.62
745.165,2369.71
745.355,2383.11
745.545,2396.26
745.736,2409.85
745.926,2423.33
746.116,2437.14
746.306,2450.96
746.496,2464.8
746.686,2478.85
746.876,2492.87
747.066,2506.97
747.256,2521.2
747.446,2535.17
747.636,2549.35
747.826,2563.39
748.016,2577.92
748.206,2592.24
748.396,2606.94
748.586,2621.42
748.776,2636.05
748.966,2650.57
749.156,2665.54
749.346,2680.19
749.535,2695.06
749.725,2709.82
749.915,2724.71
750.105,2739.68
750.295,2754.68
750.484,2769.41
750.674,2784.65
750.864,2799.62
751.054,2814.71
751.243,2829.54
751.433,2844.84
751.623,2859.9
751.812,2875.16
752.002,2890.32
752.192,2905.49
752.381,2920.59
752.571,2935.51
752.761,2950.62
752.95,2966.21
753.14,2981.22
753.329,2996.42
753.519,3011.57
753.708,3026.73
753.898,3041.86
754.087,3056.97
754.277,3072.07
754.466,3087.07
754.656,3102.23
754.845,3117.44
755.035,3132.27
755.224,3147.42
755.413,3162.18
755.603,3177.52
755.792,3192.25
755.982,3207.15
756.171,3222.04
756.36,3237.25
756.549,3252.05
756.739,3266.82
756.928,3281.79
757.117,3296.9
757.307,3311.7
757.496,3326.3
757.685,3340.9
757.874,3355.59
758.063,3369.94
758.253,3384.51
758.442,3398.82
758.631,3413.17
758.82,3427.38
759.009,3441.75
759.198,3455.79
759.387,3470.06
759.576,3484.1
759.765,3498.17
759.954,3512.13
760.143,3526.11
760.332,3539.72
760.521,3553.49
760.71,3567.12
760.899,3580.82
761.088,3594.27
761.277,3607.89
761.466,3621.15
761.655,3634.43
761.844,3647.49
762.033,3660.8
762.222,3673.87
762.411,3686.77
762.599,3699.48
762.788,3712.54
762.977,3725.15
763.166,3737.65
763.355,3749.87
763.543,3762.43
763.732,3774.88
763.921,3786.99
764.109,3799
764.298,3810.94
764.487,3822.6
764.675,3834.41
764.864,3845.83
765.053,3857.63
765.241,3868.86
765.43,3880.35
765.619,3891.58
765.807,3902.72
765.996,3913.56
766.184,3924.42
766.373,3935.1
766.561,3945.54
766.75,3956.16
766.938,3966.62
767.127,3976.67
767.315,3987
767.504,3996.83
767.692,4006.65
767.881,4016.33
768.069,4025.95
768.257,4035.19
768.446,4044.46
768.634,4053.49
768.822,4062.65
769.011,4071.52
769.199,4080.4
769.387,4088.71
769.576,4097.29
769.764,4105.49
769.952,4113.84
770.14,4121.72
770.328,4129.62
770.517,4137.39
770.705,4145.11
770.893,4152.27
771.081,4159.74
771.269,4166.81
771.457,4173.87
771.646,4180.44
771.834,4187.33
772.022,4193.67
772.21,4199.86
772.398,4205.97
772.586,4211.81
772.774,4217.44
772.962,4223.25
773.15,4228.58
773.338,4233.98
773.526,4239.11
773.714,4244.12
773.902,4248.89
774.09,4253.66
774.278,4258.01
774.465,4262.41
774.653,4266.44
774.841,4270.63
775.029,4274.15
775.217,4277.82
775.405,4281.01
775.592,4284.56
775.78,4287.67
775.968,4291.01
776.156,4293.59
776.343,4296.38
776.531,4298.65
776.719,4300.92
776.907,4302.91
777.094,4304.93
777.282,4306.41
777.47,4307.99
777.657,4309.23
777.845,4310.58
778.032,4311.42
778.22,4312.23
778.408,4312.92
778.595,4313.59
778.783,4313.81
778.97,4314.21
779.158,4314.14
779.345,4314.2
779.533,4313.79
779.72,4313.3
779.908,4312.45
780.095,4311.6
780.282,4310.64
780.47,4309.35
780.657,4308
780.845,4306.84
781.032,4305.04
781.219,4303.42
781.407,4301.36
781.594,4299.52
781.781,4297.39
781.969,4295.15
782.156,4292.36
782.343,4289.8
782.53,4286.82
782.718,4283.96
782.905,4280.92
783.092,4277.56
783.279,4274.14
783.466,4270.78
783.653,4266.89
783.841,4263.2
784.028,4259.03
784.215,4255.17
784.402,4251.03
784.589,4246.5
784.776,4242.21
784.963,4237.98
785.15,4233.05
785.337,4228.78
785.524,4223.95
785.711,4219.33
785.898,4214.22
786.085,4209.41
786.272,4204.09
786.459,4199.05
786.646,4193.73
786.833,4188.73
787.02,4182.92
787.206,4177.46
787.393,4171.7
787.58,4166.12
787.767,4160.19
787.954,4154.41
788.14,4148.59
788.327,4142.95
788.514,4136.67
788.701,4130.73
788.887,4124.63
789.074,4118.93
789.261,4112.6
789.448,4106.48
789.634,4100.24
789.821,4094.04
790.008,4087.84
790.194,4081.72
790.381,4075.58
790.567,4069.37
790.754,4062.83
790.94,4056.57
791.127,4050.24
791.314,4043.81
791.5,4037.3
791.687,4031.06
791.873,4024.72
792.059,4018.52
792.246,4012.24
792.432,4005.5
792.619,3999.04
792.805,3993.04
792.992,3986.47
793.178,3980.06
793.364,3973.25
793.551,3967.07
793.737,3960.43
793.923,3953.92
794.11,3947.13
794.296,3940.85
794.482,3934.53
794.668,3928.15
794.855,3921.47
795.041,3915.04
795.227,3908.84
795.413,3902.34
795.599,3895.87
795.786,3889.62
795.972,3883.11
796.158,3877.06
796.344,3870.62
796.53,3864.58
796.716,3858.22
796.902,3852.12
797.088,3845.67
797.274,3839.45
797.46,3833.12
797.646,3826.93
797.832,3820.53
798.018,3814.62
798.204,3808.42
798.39,3802.28
798.576,3796.16
798.762,3790.04
798.948,3783.81
799.134,3777.9
799.32,3771.73
799.506,3765.83
799.692,3759.65
799.877,3753.73
800.063,3747.75
800.249,3742.07
800.435,3736.03
800.621,3730.3
800.806,3724.71
800.992,3719.02
801.178,3713.09
801.363,3707
801.549,3701.53
801.735,3696.02
801.92,3690.32
802.106,3685.24
802.292,3679.48
802.477,3674.15
802.663,3668.44
802.849,3663.15
803.034,3657.54
803.22,3652.29
803.405,3646.91
803.591,3641.76
803.776,3636.38
803.962,3631.12
804.147,3626.05
804.333,3620.82
804.518,3615.67
804.703,3610.76
804.889,3605.46
805.074,3600.65
805.26,3595.46
805.445,3590.53
805.63,3585.62
805.816,3580.9
806.001,3575.95
806.186,3571.37
806.372,3566.38
806.557,3561.67
806.742,3556.9
806.927,3552.43
807.113,3547.51
807.298,3543.13
807.483,3538.22
807.668,3533.67
807.853,3528.98
808.039,3524.32
808.224,3519.6
808.409,3515.3
808.594,3510.51
808.779,3505.97
808.964,3501.25
809.149,3496.88
809.334,3492.11
809.519,3487.8
809.704,3483.76
809.889,3479.52
810.074,3475.51
810.259,3471.52
810.444,3466.97
810.629,3462.99
810.814,3458.76
810.999,3454.64
811.184,3450.37
811.369,3446.36
811.554,3442.16
811.738,3438.23
811.923,3434.06
812.108,3430.18
812.293,3425.93
812.478,3422.36
812.662,3418.3
812.847,3414.65
813.032,3410.57
813.217,3406.81
813.401,3402.62
813.586,3399.04
813.771,3395.24
813.955,3391.59
814.14,3387.75
814.325,3384.18
814.509,3380.39
814.694,3376.87
814.878,3373.36
815.063,3369.86
815.248,3366.06
815.432,3362.58
815.617,3359.03
815.801,3355.85
815.986,3352.37
816.17,3349.01
816.355,3345.45
816.539,3342.28
816.723,3338.72
816.908,3335.37
817.092,3332.24
817.277,3328.89
817.461,3325.83
817.645,3322.49
817.83,3319.35
818.014,3316.26
818.198,3312.83
818.383,3310.07
818.567,3306.77
818.751,3303.86
818.935,3300.53
819.12,3297.59
819.304,3294.36
819.488,3291.44
819.672,3288.46
819.856,3285.58
820.041,3282.68
820.225,3280.04
820.409,3277.11
820.593,3274.24
820.777,3271.49
820.961,3268.81
821.145,3266
821.329,3263.46
821.513,3260.36
821.697,3257.51
821.881,3254.74
822.065,3252.01
822.249,3248.93
822.433,3246.33
822.617,3243.26
822.801,3240.44
822.985,3237.45
823.169,3234.77
823.353,3231.69
823.536,3229.15
823.72,3226.25
823.904,3223.49
824.088,3220.34
824.272,3217.7
824.456,3214.87
824.639,3211.98
824.823,3208.99
825.007,3206.34
825.19,3203.18
825.374,3200.38
825.558,3197.24
825.742,3194.52
825.925,3191.33
826.109,3188.5
826.292,3185.08
826.476,3182.02
826.66,3178.86
826.843,3175.74
827.027,3172.39
827.21,3169.15
827.394,3165.72
827.577,3162.44
827.761,3159.09
827.944,3155.58
828.128,3152.27
828.311,3148.84
828.495,3145.35
828.678,3142.02
828.862,3138.43
829.045,3135
829.228,3131.1
829.412,3127.48
829.595,3124.01
829.778,3120.45
829.962,3116.66
830.145,3112.83
830.328,3109.19
830.512,3105.61
830.695,3101.67
830.878,3098.21
831.061,3094.56
831.244,3090.92
831.428,3086.79
831.611,3083.06
831.794,3079.23
831.977,3075.72
832.16,3071.93
832.343,3068.28
832.526,3064.45
832.709,3060.86
832.893,3057.07
833.076,3053.4
833.259,3049.46
833.442,3045.77
833.625,3041.68
833.808,3038.06
833.991,3033.96
834.174,3030.23
834.356,3026.27
834.539,3022.44
834.722,3018.43
834.905,3014.6
835.088,3010.43
835.271,3006.46
835.454,3002.36
835.637,2998.24
835.819,2994.21
836.002,2990.18
836.185,2985.83
836.368,2982.1
836.551,2977.96
836.733,2973.87
836.916,2969.54
837.099,2965.56
837.281,2961.29
837.464,2957.13
837.647,2952.67
837.829,2948.26
838.012,2943.84
838.195,2939.56
838.377,2935.37
838.56,2930.92
838.742,2926.34
838.925,2922.28
839.107,2917.47
839.29,2913.04
839.472,2908.48
839.655,2904.21
839.837,2899.66
840.02,2895.33
840.202,2890.75
840.385,2886.38
840.567,2881.63
840.749,2877.15
840.932,2872.55
841.114,2867.95
841.297,2863.4
841.479,2858.79
841.661,2854.05
841.843,2849.54
842.026,2844.8
842.208,2840.41
842.39,2835.64
842.572,2830.94
842.755,2826.28
842.937,2821.62
843.119,2816.67
843.301,2811.97
843.483,2806.99
843.666,2802.28
843.848,2797.36
844.03,2792.75
844.212,2787.81
844.394,2783.08
844.576,2778.26
844.758,2773.53
844.94,2768.47
845.122,2763.81
845.304,2758.7
845.486,2754.08
845.668,2749.31
845.85,2744.7
846.032,2739.81
846.214,2735.24
846.396,2730.1
846.578,2725.3
846.759,2720.38
846.941,2715.38
847.123,2710.37
847.305,2705.69
847.487,2700.77
847.669,2696.22
847.85,2691.28
848.032,2686.51
848.214,2681.53
848.396,2676.86
848.577,2672.05
848.759,2667.34
848.941,2662.51
849.122,2657.83
849.304,2652.77
849.486,2648.09
849.667,2643.18
849.849,2638.5
850.03,2633.49
850.212,2628.94
850.394,2623.98
850.575,2619.29
850.757,2614.47
850.938,2609.83
851.12,2605.05
851.301,2600.32
851.483,2595.47
851.664,2590.85
851.845,2586.03
852.027,2581.53
852.208,2576.74
852.39,2572.26
852.571,2567.49
852.752,2562.94
852.934,2558.25
853.115,2553.7
853.296,2549.07
853.478,2544.53
853.659,2539.82
853.84,2535.19
854.021,2530.71
854.203,2525.95
854.384,2521.51
854.565,2517.16
854.746,2512.47
854.927,2507.93
855.108,2503.37
855.29,2498.96
855.471,2494.32
855.652,2490.05
855.833,2485.52
856.014,2481.23
856.195,2476.82
856.376,2472.67
856.557,2468.24
856.738,2463.84
856.919,2459.35
857.1,2455.28
857.281,2450.86
857.462,2446.53
857.643,2442.16
857.824,2437.85
858.005,2433.45
858.185,2429.26
858.366,2425.11
858.547,2421
858.728,2416.64
858.909,2412.54
859.09,2408.32
859.27,2404.32
859.451,2400.21
859.632,2396.17
859.813,2391.85
859.993,2388
860.174,2383.81
860.355,2379.58
860.535,2375.42
860.716,2371.35
860.897,2367.12
861.077,2363.09
861.258,2358.97
861.438,2355.03
861.619,2350.78
861.8,2346.96
861.98,2342.81
862.161,2339.03
862.341,2334.92
862.522,2331.12
862.702,2327.06
862.883,2323.38
863.063,2319.47
863.243,2315.64
863.424,2311.79
863.604,2308.02
863.785,2304.16
863.965,2300.59
864.145,2296.81
864.326,2293.14
864.506,2289.5
864.686,2285.84
864.867,2282.25
865.047,2278.67
865.227,2275.1
865.407,2271.47
865.588,2267.79
865.768,2264.43
865.948,2260.69
866.128,2257.36
866.308,2253.77
866.488,2250.43
866.669,2246.91
866.849,2243.57
867.029,2239.91
867.209,2236.67
867.389,2233.04
867.569,2229.59
867.749,2225.85
867.929,2222.59
868.109,2218.94
868.289,2215.33
868.469,2211.54
868.649,2207.93
868.829,2204.05
869.009,2200.5
869.189,2196.49
869.369,2192.93
869.548,2189.14
869.728,2185.41
869.908,2181.65
870.088,2178.13
870.268,2174.23
870.448,2170.8
870.627,2166.97
870.807,2163.37
870.987,2159.56
871.167,2156
871.346,2152.26
871.526,2148.76
871.706,2145.01
871.885,2141.48
872.065,2137.73
872.245,2134.18
872.424,2130.62
872.604,2127.09
872.783,2123.23
872.963,2119.65
873.142,2115.85
873.322,2112.38
873.501,2108.68
873.681,2104.94
873.86,2101.29
874.04,2097.79
874.219,2094.25
874.399,2090.89
874.578,2087.36
874.758,2083.85
874.937,2080.3
875.116,2076.9
875.296,2072.98
875.475,2069.46
875.654,2065.88
875.834,2062.29
876.013,2058.66
876.192,2055.1
876.372,2051.52
876.551,2048.01
876.73,2044.37
876.909,2041.06
877.088,2037.53
877.268,2034.02
877.447,2030.35
877.626,2026.85
877.805,2023.27
877.984,2019.64
878.163,2016.02
878.342,2012.52
878.521,2008.84
878.7,2005.3
878.879,2001.62
879.059,1997.94
879.238,1994.31
879.417,1990.83
879.595,1987.24
879.774,1983.74
879.953,1980.08
880.132,1976.67
880.311,1972.97
880.49,1969.51
880.669,1965.9
880.848,1962.36
881.027,1958.72
881.205,1955.46
881.384,1951.87
881.563,1948.57
881.742,1944.94
881.921,1941.44
882.099,1937.78
882.278,1934.18
882.457,1930.38
882.635,1926.97
882.814,1923.18
882.993,1919.65
883.171,1916
883.35,1912.48
883.529,1908.72
883.707,1905.15
883.886,1901.26
884.064,1897.61
884.243,1893.9
884.422,1890.35
884.6,1886.5
884.779,1882.69
884.957,1878.82
885.136,1875.14
885.314,1871.36
885.492,1867.72
885.671,1863.91
885.849,1860.17
886.028,1856.47
886.206,1852.92
886.384,1848.88
886.563,1845.18
886.741,1841.22
886.919,1837.34
887.098,1833.4
887.276,1829.55
887.454,1825.66
887.632,1821.95
887.811,1817.98
887.989,1814.2
888.167,1810.3
888.345,1806.39
888.523,1802.35
888.702,1798.45
888.88,1794.49
889.058,1790.56
889.236,1786.55
889.414,1782.51
889.592,1778.34
889.77,1774.46
889.948,1770.36
890.126,1766.35
890.304,1762.31
890.482,1758.23
890.66,1753.85
890.838,1749.72
891.016,1745.55
891.194,1741.35
891.372,1737.23
891.55,1733.17
891.728,1728.87
891.905,1724.74
892.083,1720.39
892.261,1716.17
892.439,1711.68
892.617,1707.35
892.794,1703.13
892.972,1698.77
893.15,1694.26
893.328,1689.92
893.505,1685.43
893.683,1681.04
893.861,1676.62
894.038,1672.27
894.216,1667.84
894.394,1663.19
894.571,1658.55
894.749,1654.13
894.926,1649.59
895.104,1645.13
895.281,1640.5
895.459,1635.96
895.637,1631.34
895.814,1626.86
895.992,1622.07
896.169,1617.44
896.346,1612.88
896.524,1608.31
896.701,1603.77
896.879,1599.18
897.056,1594.34
897.233,1589.81
897.411,1584.99
897.588,1580.39
897.765,1575.68
897.943,1571.02
898.12,1566.27
898.297,1561.61
898.475,1556.81
898.652,1552.13
898.829,1547.23
899.006,1542.57
899.183,1537.91
899.361,1533.13
899.538,1528.41
899.715,1523.59
899.892,1518.67
900.069,1513.84
900.246,1508.93
900.423,1504.04
900.6,1499.09
900.777,1494.3
900.954,1489.36
901.131,1484.42
901.308,1479.63
901.485,1474.71
901.662,1469.63
901.839,1464.76
902.016,1459.56
902.193,1454.6
902.37,1449.42
902.547,1444.61
902.724,1439.52
902.9,1434.58
903.077,1429.49
903.254,1424.59
903.431,1419.5
903.608,1414.69
903.784,1409.61
903.961,1404.73
904.138,1399.68
904.315,1394.68
904.491,1389.67
904.668,1384.97
904.845,1380
905.021,1375.3
905.198,1370.28
905.375,1365.4
905.551,1360.38
905.728,1355.6
905.904,1350.5
906.081,1345.59
906.257,1340.52
906.434,1335.67
906.61,1330.6
906.787,1325.71
906.963,1320.69
907.14,1315.82
907.316,1310.88
907.493,1305.95
907.669,1300.95
907.845,1296.14
908.022,1291.03
908.198,1285.94
908.374,1281.11
908.551,1276.18
908.727,1271.2
908.903,1266.39
909.08,1261.48
909.256,1256.66
909.432,1251.89
909.608,1246.94
909.785,1242.12
909.961,1237.19
910.137,1232.34
910.313,1227.49
910.489,1222.64
910.665,1217.91
910.841,1213.13
911.018,1208.45
911.194,1203.68
911.37,1199.14
911.546,1194.37
911.722,1189.51
911.898,1184.8
912.074,1180
912.25,1175.19
912.426,1170.43
912.602,1165.66
912.777,1161
912.953,1156.35
913.129,1151.79
913.305,1147.08
913.481,1142.41
913.657,1137.87
913.833,1133.36
914.008,1128.73
914.184,1124.28
914.36,1119.76
914.536,1115.31
914.712,1110.8
914.887,1106.48
915.063,1101.95
915.239,1097.51
915.414,1093.11
915.59,1088.93
915.766,1084.43
915.941,1080.14
916.117,1075.63
916.292,1071.36
916.468,1067.09
916.644,1062.88
916.819,1058.56
916.995,1054.32
917.17,1049.97
917.346,1045.75
917.521,1041.54
917.697,1037.37
917.872,1033.27
918.048,1029.19
918.223,1025.04
918.398,1021.01
918.574,1016.83
918.749,1012.73
918.924,1008.62
919.1,1004.56
919.275,1000.39
919.45,996.44
919.626,992.45
919.801,988.496
919.976,984.456
920.151,980.603
920.327,976.729
920.502,973.042
920.677,969.14
920.852,965.215
921.027,961.337
921.202,957.562
921.378,953.674
921.553,949.703
921.728,945.786
921.903,942.03
922.078,938.288
922.253,934.609
922.428,930.924
922.603,927.333
922.778,923.602
922.953,920.031
923.128,916.371
923.303,912.773
923.478,909.172
923.652,905.498
923.827,901.951
924.002,898.324
924.177,894.791
924.352,891.19
924.527,887.583
924.702,884.02
924.876,880.523
925.051,877.161
925.226,873.68
925.401,870.291
925.575,866.82
925.75,863.482
925.925,860.112
926.099,856.799
926.274,853.466
926.449,850.229
926.623,846.89
926.798,843.589
926.972,840.352
927.147,837.008
927.322,833.734
927.496,830.686
927.671,827.423
927.845,824.295
928.02,821.143
928.194,817.866
928.368,814.723
928.543,811.607
928.717,808.539
928.892,805.585
929.066,802.463
929.24,799.362
929.415,796.304
929.589,793.244
929.763,790.281
929.938,787.4
930.112,784.357
930.286,781.255
930.461,778.21
930.635,775.347
930.809,772.5
930.983,769.601
931.157,766.638
931.332,763.788
931.506,760.905
931.68,758.151
931.854,755.331
932.028,752.514
932.202,749.643
932.376,746.918
932.55,744.127
932.724,741.526
932.898,738.842
933.072,736.092
933.246,733.361
933.42,730.583
933.594,727.856
933.768,725.267
933.942,722.546
934.116,720.013
934.29,717.325
934.464,714.694
934.638,712.021
934.811,709.412
934.985,706.968
935.159,704.387
935.333,701.81
935.507,699.205
935.68,696.733
935.854,694.205
936.028,691.575
936.201,688.984
936.375,686.489
936.549,683.924
936.722,681.489
936.896,679.182
937.07,676.775
937.243,674.392
937.417,671.991
937.59,669.631
937.764,667.247
937.938,664.855
938.111,662.563
938.285,660.234
938.458,657.858
938.631,655.68
938.805,653.367
938.978,651.151
939.152,648.832
939.325,646.585
939.499,644.361
939.672,642.15
939.845,639.861
940.019,637.625
940.192,635.316
940.365,633.167
940.538,630.981
940.712,628.8
940.885,626.543
941.058,624.481
941.231,622.339
941.405,620.186
941.578,618.064
941.751,616.036
941.924,613.929
942.097,611.858
942.27,609.723
942.443,607.612
942.617,605.677
942.79,603.655
942.963,601.651
943.136,599.825
943.309,597.895
943.482,595.922
943.655,593.953
943.828,592.124
944.001,590.221
944.173,588.285
944.346,586.183
944.519,584.339
944.692,582.452
944.865,580.618
945.038,578.698
945.211,576.828
945.383,574.97
945.556,573.176
945.729,571.296
945.902,569.498
946.075,567.612
946.247,565.859
946.42,563.896
946.593,562.218
946.765,560.491
946.938,558.64
947.111,556.941
947.283,555.186
947.456,553.457
947.628,551.704
947.801,549.85
947.974,548.077
948.146,546.33
948.319,544.686
948.491,542.963
948.664,541.195
948.836,539.438
949.009,537.696
949.181,536.02
949.353,534.35
949.526,532.679
949.698,531.031
949.871,529.278
950.043,527.723
950.215,526.153
950.388,524.517
950.56,522.664
950.732,521.076
950.904,519.358
951.077,517.811
951.249,516.101
951.421,514.459
951.593,512.839
951.766,511.292
951.938,509.68
952.11,508.107
952.282,506.559
952.454,505.008
952.626,503.297
952.798,501.787
952.97,500.203
953.142,498.773
953.314,497.221
953.487,495.694
953.659,494.06
953.83,492.571
954.002,491.138
954.174,489.777
954.346,488.233
954.518,486.82
954.69,485.317
954.862,483.881
955.034,482.422
955.206,480.934
955.378,479.369
955.549,477.897
955.721,476.532
955.893,475.1
956.065,473.582
956.236,472.14
956.408,470.742
956.58,469.46
956.752,468.105
956.923,466.718
957.095,465.346
957.267,464.037
957.438,462.573
957.61,461.208
957.781,459.845
957.953,458.495
958.125,457.139
958.296,455.729
958.468,454.332
958.639,453.011
958.811,451.767
958.982,450.397
959.154,449.11
959.325,447.791
959.496,446.515
959.668,445.175
959.839,443.897
960.011,442.558
960.182,441.243
960.353,439.946
960.525,438.706
960.696,437.414
960.867,436.28
961.038,434.981
961.21,433.648
961.381,432.386
961.552,431.097
961.723,429.808
961.895,428.631
962.066,427.436
962.237,426.071
962.408,424.824
962.579,423.596
962.75,422.415
962.921,421.295
963.092,420.101
963.263,418.912
963.434,417.672
963.605,416.359
963.776,415.195
963.947,414.057
964.118,412.931
964.289,411.757
964.46,410.645
964.631,409.494
964.802,408.356
964.973,407.315
965.144,406.196
965.315,404.995
965.485,403.799
965.656,402.716
965.827,401.639
965.998,400.509
966.169,399.328
966.339,398.068
966.51,396.97
966.681,395.726
966.851,394.622
967.022,393.488
967.193,392.324
967.363,391.15
967.534,389.974
967.705,388.906
967.875,387.721
968.046,386.667
968.216,385.531
968.387,384.419
968.557,383.341
968.728,382.222
968.898,381.124
969.069,379.963
969.239,378.934
969.41,377.786
969.58,376.605
969.751,375.554
969.921,374.462
970.091,373.495
970.262,372.454
970.432,371.346
970.602,370.279
970.773,369.315
970.943,368.273
971.113,367.217
971.283,366.167
971.454,365.059
971.624,364.04
971.794,363.028
971.964,362.017
972.134,360.833
972.305,359.746
972.475,358.703
972.645,357.725
972.815,356.678
972.985,355.712
973.155,354.547
973.325,353.558
973.495,352.499
973.665,351.513
973.835,350.487
974.005,349.573
974.175,348.534
974.345,347.49
974.515,346.584
974.685,345.576
974.855,344.57
975.024,343.561
975.194,342.665
975.364,341.752
975.534,340.724
975.704,339.667
975.874,338.673
976.043,337.687
976.213,336.654
976.383,335.735
976.553,334.723
976.722,333.735
976.892,332.784
977.062,331.745
977.231,330.747
977.401,329.733
977.57,328.731
977.74,327.802
977.91,326.776
978.079,325.902
978.249,324.813
978.418,323.839
978.588,322.829
978.757,321.898
978.927,320.841
979.096,319.96
979.266,319.003
979.435,318.069
979.604,317.153
979.774,316.239
979.943,315.167
980.113,314.167
980.282,313.201
980.451,312.347
980.621,311.394
980.79,310.501
980.959,309.597
981.128,308.627
981.298,307.746
981.467,306.777
981.636,305.827
981.805,304.91
981.974,303.948
982.143,303.061
982.313,302.185
982.482,301.369
982.651,300.348
982.82,299.489
982.989,298.612
983.158,297.765
983.327,296.962
983.496,295.971
983.665,295.073
983.834,294.159
984.003,293.35
984.172,292.502
984.341,291.591
984.51,290.721
984.679,289.893
984.847,289.049
985.016,288.183
985.185,287.414
985.354,286.609
985.523,285.839
985.692,284.946
985.86,284.041
986.029,283.143
986.198,282.193
986.366,281.209
986.535,280.333
986.704,279.361
986.873,278.637
987.041,277.766
987.21,276.93
987.378,276.007
987.547,275.213
987.716,274.461
987.884,273.724
988.053,272.899
988.221,272.083
988.39,271.186
988.558,270.344
988.727,269.515
988.895,268.69
989.064,267.838
989.232,267.03
989.4,266.304
989.569,265.496
989.737,264.63
989.905,263.836
990.074,263.03
990.242,262.207
990.41,261.444
990.579,260.674
990.747,259.785
990.915,258.976
991.083,258.145
991.252,257.292
991.42,256.43
991.588,255.691
991.756,254.83
991.924,253.952
992.092,253.054
992.261,252.242
992.429,251.407
992.597,250.662
992.765,249.862
992.933,248.99
993.101,248.136
993.269,247.234
993.437,246.469
993.605,245.718
993.773,244.963
993.941,244.121
994.109,243.233
994.277,242.396
994.444,241.658
994.612,240.841
994.78,239.999
994.948,239.164
995.116,238.441
995.284,237.615
995.451,236.895
995.619,236.184
995.787,235.351
995.955,234.548
996.122,233.781
996.29,233.024
996.458,232.208
996.625,231.568
996.793,230.843
996.961,230.034
997.128,229.251
997.296,228.522
997.463,227.781
997.631,226.987
997.798,226.312
997.966,225.576
998.133,224.659
998.301,223.944
998.468,223.218
998.636,222.422
998.803,221.738
998.971,221
999.138,220.282
999.305,219.581
999.473,218.851
999.64,218.131
999.807,217.382
999.975,216.612
1000.14,215.913
1000.31,215.291
1000.48,214.478
1000.64,213.817
1000.81,213.104
1000.98,212.48
1001.15,211.766
1001.31,210.995
1001.48,210.252
1001.65,209.498
1001.81,208.792
1001.98,208.104
1002.15,207.461
1002.32,206.734
1002.48,206.119
1002.65,205.466
1002.82,204.669
1002.98,204.015
1003.15,203.293
1003.32,202.669
1003.48,201.941
1003.65,201.274
1003.82,200.583
1003.98,199.933
1004.15,199.182
1004.32,198.536
1004.49,197.938
1004.65,197.251
1004.82,196.549
1004.99,195.839
1005.15,195.142
1005.32,194.502
1005.49,193.822
1005.65,193.163
1005.82,192.418
1005.99,191.877
1006.15,191.194
1006.32,190.559
1006.49,189.867
1006.65,189.226
1006.82,188.509
1006.99,187.908
1007.15,187.193
1007.32,186.557
1007.49,185.865
1007.65,185.216
1007.82,184.599
1007.98,183.92
1008.15,183.278
1008.32,182.551
1008.48,181.935
1008.65,181.284
1008.82,180.69
1008.98,180.069
1009.15,179.369
1009.32,178.696
1009.48,178.167
1009.65,177.534
1009.81,176.929
1009.98,176.375
1010.15,175.71
1010.31,175.182
1010.48,174.604
1010.65,173.996
1010.81,173.358
1010.98,172.74
1011.14,172.178
1011.31,171.493
1011.48,170.852
1011.64,170.236
1011.81,169.63
1011.97,169.074
1012.14,168.509
1012.31,167.881
1012.47,167.326
1012.64,166.74
1012.8,166.143
1012.97,165.541
1013.14,164.988
1013.3,164.368
1013.47,163.678
1013.63,163.2
1013.8,162.731
1013.97,162.059
1014.13,161.402
1014.3,160.733
1014.46,160.186
1014.63,159.582
1014.79,159.078
1014.96,158.457
1015.13,157.89
1015.29,157.339
1015.46,156.755
1015.62,156.126
1015.79,155.576
1015.95,155.003
1016.12,154.383
1016.29,153.9
1016.45,153.321
1016.62,152.754
1016.78,152.123
1016.95,151.495
1017.11,150.977
1017.28,150.381
1017.44,149.815
1017.61,149.124
1017.78,148.468
1017.94,147.898
1018.11,147.355
1018.27,146.778
1018.44,146.221
1018.6,145.598
1018.77,144.981
1018.93,144.412
1019.1,143.788
1019.26,143.294
1019.43,142.667
1019.59,142.076
1019.76,141.599
1019.92,141.08
1020.09,140.488
1020.25,139.95
1020.42,139.403
1020.59,138.803
1020.75,138.243
1020.92,137.74
1021.08,137.156
1021.25,136.578
1021.41,136.076
1021.58,135.447
1021.74,134.796
1021.91,134.346
1022.07,133.868
1022.24,133.37
1022.4,132.85
1022.57,132.355
1022.73,131.8
1022.89,131.238
1023.06,130.736
1023.22,130.286
1023.39,129.681
1023.55,129.206
1023.72,128.734
1023.88,128.263
1024.05,127.692
1024.21,127.183
1024.38,126.659
1024.54,126.096
1024.71,125.569
1024.87,125.048
1025.04,124.51
1025.2,124.113
1025.37,123.659
1025.53,123.221
1025.7,122.682
1025.86,122.243
1026.02,121.762
1026.19,121.211
1026.35,120.734
1026.52,120.331
1026.68,119.963
1026.85,119.516
1027.01,119.026
1027.18,118.543
1027.34,118.078
1027.5,108.839
1027.67,123.789
1027.83,108.471
1028,108.184
1028.16,109.536
1028.33,126.329
1028.49,114.205
1028.65,116.294
1028.82,105.849
1028.98,113.509
1029.15,98.1489
1029.31,122.315
1029.48,110.805
1029.64,114.492
1029.8,106.464
1029.97,98.1899
1030.13,111.42
1030.3,124.486
1030.46,97.5345
1030.62,97.002
1030.79,93.1109
1030.95,111.584
1031.12,114.86
1031.28,113.058
1031.44,97.4116
1031.61,105.726
1031.77,105.399
1031.94,102.941
1032.1,91.9231
1032.26,101.794
1032.43,100.033
1032.59,102.941
1032.76,107.365
1032.92,102.122
1033.08,96.6334
1033.25,92.6603
1033.41,87.9091
1033.57,97.4116
1033.74,92.9471
1033.9,96.019
1034.07,87.95
1034.23,85.0419
1034.39,97.8622
1034.56,110.764
1034.72,100.238
1034.88,93.3157
1035.05,85.8201
1035.21,94.3397
1035.37,94.3397
1035.54,82.953
1035.7,98.2308
1035.86,75.4984
1036.03,91.022
1036.19,89.5065
1036.35,83.3216
1036.52,83.6902
1036.68,81.2736
1036.84,93.4386
1037.01,74.1877
1037.17,83.7722
1037.33,90.981
1037.5,91.3906
1037.66,92.5375
1037.82,87.2537
1037.99,76.4404
1038.15,64.9718
1038.31,95.036
1038.48,90.4895
1038.64,90.5305
1038.8,81.8061
1038.97,90.5714
1039.13,85.0009
1039.29,91.5954
1039.46,91.7183
1039.62,87.9091
1039.78,74.7201
1039.95,96.7563
1040.11,87.6223
1040.27,89.2607
1040.43,77.7511
1040.6,82.6253
1040.76,81.7242
1040.92,73.3275
1041.09,81.0688
1041.25,77.1777
1041.41,82.7072
1041.57,91.5954
1041.74,79.3895
1041.9,76.1947
1042.06,69.7641
1042.23,80.4954
1042.39,80.0039
1042.55,67.6751
1042.71,75.1707
1042.88,94.7902
1043.04,87.4995
1043.2,76.3585
1043.36,82.8711
1043.53,78.4474
1043.69,77.0548
EndSpectrumFile,DIFF DATA
