CalFile
Version,1.000000
Unique File ID,20110323-0219100374-TESTBOX2-7E963C-00007406
Requires Spectrometer iString,fffdecdcdadadacl,fffdecdccleidadcdcdgdf
Calibration Wavelength [nm],700.000000
Calibration Integration Time [ms],50.000000
Calibration Spectra To Average,50
Calibration Boxcar Width,100
Substance,USB2000 darkness
Calibration Points Wavelength [nm],0,10
Calibration Points Intensity [counts],0,2.56875
Calibration Points Intensity (raw) [counts],74.891,77.4597
Calibration Points Baseline [counts],74.891
Calibration Type,2
Calibration Parameters,0,3.89294
Calibration Rsquare,1.000000
Conc. Threshold Low Warning [ppm],0.000000
Conc. Threshold High Warning [ppm],10.000000
Conc. Threshold Low Error [ppm],0.000000
Conc. Threshold High Error [ppm],0.000000
SpectrumFile,CALIBRATION
Version,1.000000
Location,
Customer,
SampleInfo,
GPSData,51.118462,-114.185340,1172.000000,8150,230311
SystemTime,2011,3,23,2,16,56,561
Pipe km,0.000000
Pre-Dilution Factor,1.000000
Freeform Info,
Concentration,0.000000
CalibrationName,USB2000 darkness
Unique Calibration File ID,
CalibrationWavelength,700.000000
CalibrationType,2,0.000000,3.892943
CalibrationRSquared,1.000000
CalibrationConcentrations [ppm],2,0.000000,10.000000
CalibrationCounts,2,0.000000,2.568751
CalibrationWarnLow,0.000000
CalibrationWarnHigh,10.000000
CalibrationErrorLow,0.000000
CalibrationErrorHigh,0.000000
Spectrometer Name,USB2000+
Spectrometer Serial,USB2+H02265
IntegrationTime [ms],0.000000
AveragedSpectra,-858993460
BoxcarWidth,-858993460
WavelengthRange [nm],178.541230,881.840970
IntensityRange [counts],-72.131919,84.309489
WavelengthCount,2048
Wavelength [nm],Intensity [counts]
178.541,56.5039
178.924,56.5039
179.307,56.5039
179.689,-5.00535
180.072,-15.6314
180.454,-32.8109
180.837,-39.8793
181.219,-47.884
181.602,-57.1525
181.984,-59.3526
182.367,-66.3274
182.749,-70.1659
183.131,-66.2338
183.514,-66.6083
183.896,-62.3953
184.278,-67.2168
184.661,-72.1319
185.043,-60.7101
185.425,-48.2585
185.807,-42.5475
186.189,-43.2965
186.571,-45.9179
186.954,-37.6324
187.336,-16.7548
187.718,-15.7718
188.1,-5.56708
188.482,0.845985
188.864,-0.371094
189.245,8.38251
189.627,14.6083
190.009,25.7961
190.391,19.3362
190.773,22.5193
191.155,25.9833
191.536,41.0096
191.918,30.3835
192.3,47.5631
192.682,47.5163
193.063,52.0569
193.445,48.7802
193.826,61.934
194.208,59.5466
194.589,61.6063
194.971,68.1598
195.352,67.6917
195.734,70.2663
196.115,67.2236
196.497,64.883
196.878,74.7133
197.259,72.5132
197.641,75.6027
198.022,72.1855
198.403,73.6835
198.784,70.0322
199.166,67.6917
199.547,71.8578
199.928,64.9767
200.309,66.5682
200.69,67.4108
201.071,72.1855
201.452,74.3388
201.833,70.1258
202.214,79.9561
202.595,60.1552
202.976,62.168
203.357,70.2195
203.738,76.5857
204.119,64.9767
204.499,65.4448
204.88,62.1212
205.261,68.7215
205.642,60.9509
206.022,73.5898
206.403,58.6572
206.784,66.381
207.164,58.7976
207.545,60.436
207.925,63.0106
208.306,62.3553
208.686,55.6145
209.067,68.6747
209.447,57.2061
209.828,67.9257
210.208,64.1809
210.588,67.6917
210.969,66.7555
211.349,63.7128
211.729,65.2575
212.109,64.6022
212.49,64.883
212.87,60.6701
213.25,65.1171
213.63,65.3511
214.01,63.8064
214.39,63.0574
214.77,64.5554
215.15,64.3681
215.53,64.4149
215.91,68.5811
216.29,60.5296
216.67,50.9409
217.05,51.0473
217.429,51.0869
217.809,51.1465
218.189,51.5112
218.569,51.9554
218.948,52.4572
219.328,53.0129
219.708,53.6026
220.087,54.2444
220.467,54.9093
220.847,55.5738
221.226,56.2806
221.606,56.9085
221.985,57.5761
222.364,58.2336
222.744,58.8659
223.123,59.5641
223.503,60.2239
223.882,60.7802
224.261,61.3739
224.641,61.9244
225.02,62.4922
225.399,63.0162
225.778,63.4862
226.157,63.8942
226.536,64.2421
226.916,64.594
227.295,64.9366
227.674,65.2054
228.053,65.534
228.432,65.7459
228.811,65.9611
229.189,66.177
229.568,66.37
229.947,66.554
230.326,66.7406
230.705,66.8526
231.084,66.9362
231.462,67.0324
231.841,67.1127
232.22,67.1339
232.598,67.1905
232.977,67.2392
233.356,67.2692
233.734,67.309
234.113,67.3342
234.491,67.3775
234.87,67.3917
235.248,67.3347
235.627,67.3254
236.005,67.2969
236.383,67.296
236.762,67.2895
237.14,67.2881
237.518,67.3037
237.896,67.2911
238.275,67.3258
238.653,67.3265
239.031,67.3538
239.409,67.3461
239.787,67.3137
240.165,67.3363
240.543,67.2846
240.921,67.3545
241.299,67.4215
241.677,67.4642
242.055,67.4288
242.433,67.4469
242.811,67.4688
243.188,67.5289
243.566,67.524
243.944,67.5179
244.322,67.5124
244.699,67.5764
245.077,67.6057
245.455,67.6831
245.832,67.7161
246.21,67.7779
246.587,67.8112
246.965,67.8715
247.342,67.8817
247.72,67.9465
248.097,67.9716
248.475,68.0152
248.852,68.0373
249.229,68.0443
249.607,68.0832
249.984,68.1174
250.361,68.1668
250.738,68.2131
251.116,68.2543
251.493,68.3147
251.87,68.3296
252.247,68.3368
252.624,68.4174
253.001,68.4693
253.378,68.4998
253.755,68.5837
254.132,68.5653
254.509,68.5811
254.886,68.5736
255.263,68.6009
255.639,68.5843
256.016,68.5969
256.393,68.6361
256.77,68.7481
257.146,68.776
257.523,68.8631
257.9,68.9223
258.276,68.964
258.653,68.9784
259.029,69.0331
259.406,69.049
259.782,69.1037
260.159,69.1354
260.535,69.1577
260.912,69.1889
261.288,69.2229
261.664,69.2737
262.041,69.2576
262.417,69.2621
262.793,69.3026
263.169,69.32
263.545,69.3533
263.922,69.3929
264.298,69.4076
264.674,69.4486
265.05,69.5126
265.426,69.5418
265.802,69.5071
266.178,69.4831
266.554,69.5869
266.93,69.6244
267.305,69.6559
267.681,69.6594
268.057,69.7211
268.433,69.7877
268.809,69.7849
269.184,69.7933
269.56,69.8573
269.936,69.9747
270.311,69.9777
270.687,69.9696
271.062,70.0376
271.438,70.0697
271.813,70.1149
272.189,70.2141
272.564,70.257
272.94,70.2858
273.315,70.3974
273.69,70.4209
274.066,70.4661
274.441,70.4978
274.816,70.4787
275.191,70.5301
275.566,70.5888
275.942,70.6082
276.317,70.6261
276.692,70.6317
277.067,70.6671
277.442,70.6517
277.817,70.5942
278.192,70.5811
278.567,70.5639
278.942,70.5939
279.316,70.5863
279.691,70.5905
280.066,70.5807
280.441,70.5756
280.816,70.6389
281.19,70.6168
281.565,70.6289
281.94,70.6987
282.314,70.7712
282.689,70.8089
283.063,70.773
283.438,70.7607
283.812,70.7684
284.187,70.7511
284.561,70.7723
284.935,70.7595
285.31,70.7616
285.684,70.8012
286.058,70.7984
286.433,70.7721
286.807,70.7714
287.181,70.7903
287.555,70.8154
287.929,70.8778
288.303,70.9531
288.678,71.0166
289.052,70.9868
289.426,71.0248
289.8,71.0649
290.173,71.1096
290.547,71.1606
290.921,71.2507
291.295,71.2814
291.669,71.3262
292.043,71.3553
292.416,71.3429
292.79,71.2798
293.164,71.3399
293.537,71.3963
293.911,71.423
294.285,71.44
294.658,71.4726
295.032,71.4764
295.405,71.5085
295.779,71.5197
296.152,71.5479
296.525,71.5758
296.899,71.5847
297.272,71.6631
297.645,71.6923
298.019,71.71
298.392,71.7996
298.765,71.8199
299.138,71.7936
299.511,71.804
299.884,71.8071
300.258,71.8357
300.631,71.8828
301.004,71.9193
301.376,71.9191
301.749,71.9349
302.122,71.9864
302.495,71.9834
302.868,71.9869
303.241,72.0358
303.614,72.0174
303.986,71.9941
304.359,72.0309
304.732,72.0737
305.104,72.0875
305.477,72.07
305.85,72.077
306.222,72.1035
306.595,72.1217
306.967,72.1236
307.34,72.1317
307.712,72.1394
308.084,72.1599
308.457,72.175
308.829,72.1655
309.201,72.1888
309.573,72.1869
309.946,72.1767
310.318,72.2356
310.69,72.2784
311.062,72.3318
311.434,72.3474
311.806,72.3574
312.178,72.3842
312.55,72.3923
312.922,72.4273
313.294,72.4457
313.666,72.4585
314.038,72.4901
314.41,72.5251
314.781,72.5872
315.153,72.6378
315.525,72.618
315.897,72.6466
316.268,72.6511
316.64,72.6415
317.011,72.5695
317.383,72.5581
317.755,72.6182
318.126,72.638
318.498,72.6362
318.869,72.675
319.24,72.7596
319.612,72.6883
319.983,72.6827
320.354,72.709
320.726,72.7032
321.097,72.7354
321.468,72.7123
321.839,72.7482
322.21,72.7687
322.581,72.8162
322.952,72.8022
323.323,72.8101
323.694,72.8227
324.065,72.849
324.436,72.9131
324.807,72.9182
325.178,72.9117
325.549,72.9086
325.92,72.8812
326.29,72.9289
326.661,72.9224
327.032,72.9587
327.402,73.0074
327.773,73.0016
328.144,73.0053
328.514,73.0404
328.885,73.0176
329.255,73.0565
329.626,73.0961
329.996,73.1178
330.366,73.087
330.737,73.1159
331.107,73.1858
331.477,73.19
331.848,73.2028
332.218,73.2135
332.588,73.2179
332.958,73.2
333.328,73.2265
333.698,73.2335
334.068,73.2039
334.438,73.2719
334.808,73.2976
335.178,73.2771
335.548,73.2873
335.918,73.275
336.288,73.2372
336.658,73.2147
337.027,73.2396
337.397,73.2503
337.767,73.206
338.137,73.2324
338.506,73.1976
338.876,73.1632
339.245,73.2063
339.615,73.1923
339.984,73.2254
340.354,73.2454
340.723,73.3479
341.093,73.3963
341.462,73.3707
341.831,73.4135
342.201,73.4114
342.57,73.417
342.939,73.3919
343.308,73.3521
343.677,73.3551
344.047,73.3248
344.416,73.3388
344.785,73.3241
345.154,73.3514
345.523,73.3695
345.892,73.3539
346.261,73.3413
346.629,73.3812
346.998,73.3535
347.367,73.3616
347.736,73.3861
348.105,73.3758
348.473,73.3919
348.842,73.4052
349.211,73.4091
349.579,73.4636
349.948,73.4569
350.316,73.4433
350.685,73.5265
351.053,73.5258
351.422,73.4934
351.79,73.4718
352.159,73.5328
352.527,73.588
352.895,73.6017
353.263,73.649
353.632,73.6483
354,73.683
354.368,73.7522
354.736,73.7834
355.104,73.8094
355.472,73.8053
355.84,73.8311
356.208,73.8763
356.576,73.8546
356.944,73.7757
357.312,73.8076
357.68,73.7852
358.048,73.8153
358.415,73.8129
358.783,73.8672
359.151,73.8926
359.518,73.9571
359.886,73.9792
360.254,73.9995
360.621,74.0388
360.989,74.0409
361.356,74.0356
361.724,74.0796
362.091,74.0659
362.459,74.0328
362.826,73.9809
363.193,73.9792
363.56,73.9853
363.928,73.942
364.295,73.9117
364.662,73.901
365.029,73.8593
365.396,73.8628
365.763,73.8931
366.13,73.8833
366.497,73.9245
366.864,73.9711
367.231,74.0279
367.598,73.9878
367.965,73.942
368.332,73.965
368.699,73.9825
369.065,73.9646
369.432,73.9911
369.799,73.9811
370.165,73.9909
370.532,73.9697
370.899,73.9662
371.265,73.9573
371.632,73.9476
371.998,73.9469
372.365,73.9271
372.731,73.9301
373.097,73.9112
373.464,73.9261
373.83,73.9743
374.196,73.9534
374.562,74.0053
374.929,73.9564
375.295,73.9676
375.661,73.9368
376.027,73.9571
376.393,73.9864
376.759,74.0135
377.125,74.0989
377.491,74.0885
377.857,74.1062
378.223,74.1595
378.588,74.1562
378.954,74.1448
379.32,74.1965
379.686,74.1553
380.051,74.1879
380.417,74.1963
380.783,74.245
381.148,74.2538
381.514,74.2864
381.879,74.3446
382.245,74.3355
382.61,74.3665
382.976,74.3164
383.341,74.2831
383.706,74.3279
384.071,74.319
384.437,74.3144
384.802,74.3225
385.167,74.2943
385.532,74.2962
385.897,74.2836
386.262,74.2671
386.627,74.264
386.992,74.2787
387.357,74.3181
387.722,74.313
388.087,74.2941
388.452,74.2568
388.817,74.2529
389.182,74.2519
389.546,74.2575
389.911,74.2713
390.276,74.2359
390.64,74.2205
391.005,74.2389
391.37,74.2643
391.734,74.2445
392.099,74.241
392.463,74.2226
392.827,74.2184
393.192,74.2235
393.556,74.3116
393.92,74.3416
394.285,74.3325
394.649,74.3365
395.013,74.3113
395.377,74.3397
395.741,74.2876
396.105,74.2873
396.47,74.2268
396.834,74.2575
397.198,74.2431
397.561,74.2445
397.925,74.2452
398.289,74.2149
398.653,74.2142
399.017,74.2659
399.381,74.2685
399.744,74.2817
400.108,74.2186
400.472,74.1977
400.835,74.1704
401.199,74.176
401.562,74.1821
401.926,74.1453
402.289,74.156
402.653,74.1835
403.016,74.2037
403.379,74.176
403.743,74.1597
404.106,74.1716
404.469,74.207
404.832,74.1388
405.196,74.115
405.559,74.0815
405.922,74.1068
406.285,74.0952
406.648,74.112
407.011,74.0989
407.374,74.1087
407.737,74.1315
408.1,74.1017
408.462,74.0801
408.825,74.061
409.188,74.0584
409.551,74.0684
409.913,74.0787
410.276,74.0891
410.639,74.0824
411.001,74.1141
411.364,74.1707
411.726,74.2259
412.089,74.2981
412.451,74.2911
412.814,74.2934
413.176,74.2764
413.538,74.3074
413.9,74.3113
414.263,74.2738
414.625,74.2631
414.987,74.2675
415.349,74.2268
415.711,74.2554
416.073,74.22
416.435,74.2079
416.797,74.1956
417.159,74.2263
417.521,74.3144
417.883,74.3295
418.245,74.3616
418.607,74.3784
418.968,74.3858
419.33,74.3777
419.692,74.4073
420.053,74.3744
420.415,74.3772
420.776,74.3675
421.138,74.3556
421.499,74.3365
421.861,74.3532
422.222,74.3358
422.584,74.3251
422.945,74.299
423.306,74.2792
423.668,74.2582
424.029,74.2571
424.39,74.22
424.751,74.2629
425.112,74.2608
425.473,74.2007
425.834,74.1842
426.195,74.1942
426.556,74.179
426.917,74.2326
427.278,74.2682
427.639,74.2289
428,74.1923
428.36,74.1769
428.721,74.179
429.082,74.1725
429.443,74.1462
429.803,74.1367
430.164,74.1825
430.524,74.1769
430.885,74.1907
431.245,74.2263
431.606,74.2822
431.966,74.2645
432.326,74.2112
432.687,74.2245
433.047,74.2496
433.407,74.255
433.767,74.2037
434.128,74.2175
434.488,74.238
434.848,74.2368
435.208,74.254
435.568,74.312
435.928,74.2927
436.288,74.2755
436.648,74.3307
437.007,74.2843
437.367,74.3137
437.727,74.3043
438.087,74.343
438.446,74.3293
438.806,74.3709
439.166,74.394
439.525,74.3502
439.885,74.3246
440.244,74.3311
440.604,74.3595
440.963,74.3838
441.323,74.3952
441.682,74.3684
442.041,74.3553
442.4,74.3365
442.76,74.3493
443.119,74.3202
443.478,74.3132
443.837,74.3232
444.196,74.3495
444.555,74.3505
444.914,74.3286
445.273,74.3824
445.632,74.3803
445.991,74.4031
446.35,74.4094
446.709,74.3754
447.067,74.3651
447.426,74.3402
447.785,74.381
448.143,74.3544
448.502,74.35
448.861,74.3106
449.219,74.3074
449.578,74.2741
449.936,74.2158
450.295,74.2184
450.653,74.203
451.011,74.1842
451.37,74.2084
451.728,74.1886
452.086,74.1516
452.444,74.187
452.802,74.1905
453.16,74.1802
453.519,74.1707
453.877,74.166
454.235,74.1646
454.592,74.1222
454.95,74.0973
455.308,74.0582
455.666,74.1129
456.024,74.166
456.382,74.1236
456.739,74.1252
457.097,74.1099
457.455,74.112
457.812,74.0817
458.17,74.0712
458.527,74.0847
458.885,74.122
459.242,74.1353
459.6,74.0626
459.957,74.0034
460.314,74.009
460.672,74.0111
461.029,74.0172
461.386,73.9995
461.743,74.0009
462.1,73.9892
462.457,73.9706
462.814,73.9941
463.171,74.0197
463.528,74.0349
463.885,74.0218
464.242,74.047
464.599,74.0363
464.956,74.0444
465.313,74.0316
465.669,73.9799
466.026,73.9818
466.383,73.9618
466.739,73.9832
467.096,73.9909
467.452,74.0388
467.809,74.0034
468.165,74.0486
468.522,74.1015
468.878,74.1297
469.234,74.1008
469.591,74.0784
469.947,74.0898
470.303,74.0815
470.659,74.0752
471.015,74.1034
471.371,74.0586
471.728,74.0875
472.084,74.1469
472.439,74.1821
472.795,74.1944
473.151,74.2082
473.507,74.1681
473.863,74.1464
474.219,74.1946
474.574,74.1921
474.93,74.1273
475.286,74.1285
475.641,74.1767
475.997,74.1884
476.352,74.2126
476.708,74.1916
477.063,74.1877
477.419,74.2405
477.774,74.2466
478.13,74.261
478.485,74.2615
478.84,74.2797
479.195,74.3167
479.55,74.3062
479.906,74.2918
480.261,74.3029
480.616,74.3006
480.971,74.3071
481.326,74.313
481.681,74.3178
482.035,74.3498
482.39,74.3621
482.745,74.3223
483.1,74.2512
483.455,74.2426
483.809,74.2377
484.164,74.2135
484.518,74.2144
484.873,74.1665
485.228,74.2317
485.582,74.1807
485.936,74.1967
486.291,74.2168
486.645,74.2333
487,74.2405
487.354,74.2293
487.708,74.2522
488.062,74.2722
488.416,74.3595
488.771,74.4061
489.125,74.4408
489.479,74.4112
489.833,74.3574
490.187,74.2964
490.54,74.2906
490.894,74.2762
491.248,74.265
491.602,74.2321
491.956,74.2212
492.309,74.2061
492.663,74.1933
493.017,74.1839
493.37,74.1928
493.724,74.1767
494.077,74.18
494.431,74.1865
494.784,74.2103
495.138,74.2121
495.491,74.2387
495.844,74.2552
496.197,74.3057
496.551,74.3139
496.904,74.3139
497.257,74.262
497.61,74.2836
497.963,74.2936
498.316,74.3088
498.669,74.2778
499.022,74.2927
499.375,74.2841
499.728,74.3097
500.08,74.312
500.433,74.3085
500.786,74.289
501.139,74.3064
501.491,74.3516
501.844,74.3472
502.196,74.3449
502.549,74.39
502.901,74.3395
503.254,74.3083
503.606,74.2932
503.959,74.3013
504.311,74.2573
504.663,74.2119
505.015,74.1995
505.368,74.2238
505.72,74.2463
506.072,74.2072
506.424,74.1537
506.776,74.1415
507.128,74.0817
507.48,74.0691
507.832,74.1297
508.183,74.0808
508.535,74.1222
508.887,74.1378
509.239,74.1651
509.59,74.1164
509.942,74.1257
510.294,74.0754
510.645,74.1041
510.997,74.1206
511.348,74.1532
511.7,74.1618
512.051,74.136
512.402,74.1313
512.754,74.0936
513.105,74.0647
513.456,74.0824
513.807,74.0691
514.159,74.0365
514.51,74.0612
514.861,74.0624
515.212,74.0864
515.563,74.0833
515.914,74.1148
516.265,74.1145
516.615,74.0733
516.966,74.077
517.317,74.102
517.668,74.1136
518.018,74.1148
518.369,74.1187
518.72,74.0575
519.07,73.9981
519.421,74.006
519.771,74.044
520.122,74.094
520.472,74.0638
520.822,74.0633
521.173,74.0591
521.523,74.0996
521.873,74.1206
522.223,74.1471
522.573,74.163
522.923,74.1623
523.273,74.2063
523.623,74.2112
523.973,74.2072
524.323,74.1865
524.673,74.2268
525.023,74.2713
525.373,74.2713
525.723,74.2878
526.072,74.3185
526.422,74.3211
526.772,74.3381
527.121,74.2901
527.471,74.3111
527.82,74.3213
528.17,74.3376
528.519,74.3835
528.868,74.3935
529.218,74.4119
529.567,74.3996
529.916,74.3789
530.265,74.3591
530.615,74.4026
530.964,74.4157
531.313,74.4098
531.662,74.4101
532.011,74.4422
532.36,74.401
532.709,74.3877
533.058,74.4147
533.406,74.4443
533.755,74.4508
534.104,74.4292
534.452,74.4338
534.801,74.4541
535.15,74.4105
535.498,74.4389
535.847,74.4506
536.195,74.4527
536.544,74.4853
536.892,74.4692
537.24,74.4881
537.589,74.4681
537.937,74.4967
538.285,74.4559
538.633,74.5116
538.982,74.5044
539.33,74.4592
539.678,74.4427
540.026,74.4292
540.374,74.5049
540.722,74.5293
541.069,74.4879
541.417,74.4825
541.765,74.4543
542.113,74.4273
542.46,74.4005
542.808,74.3758
543.156,74.4124
543.503,74.4713
543.851,74.5184
544.198,74.5097
544.546,74.4934
544.893,74.5004
545.24,74.5037
545.588,74.5368
545.935,74.5403
546.282,74.5528
546.629,74.5589
546.977,74.533
547.324,74.5631
547.671,74.5836
548.018,74.5556
548.365,74.53
548.712,74.5386
549.058,74.5444
549.405,74.5163
549.752,74.4872
550.099,74.5365
550.446,74.5489
550.792,74.5512
551.139,74.5759
551.485,74.5859
551.832,74.5738
552.178,74.5945
552.525,74.6099
552.871,74.6343
553.218,74.69
553.564,74.7731
553.91,74.7983
554.256,74.7659
554.603,74.7177
554.949,74.7338
555.295,74.7846
555.641,74.7557
555.987,74.758
556.333,74.7536
556.679,74.7419
557.025,74.7415
557.37,74.7037
557.716,74.7163
558.062,74.7128
558.408,74.7319
558.753,74.7035
559.099,74.6395
559.444,74.6045
559.79,74.6015
560.135,74.6392
560.481,74.669
560.826,74.6541
561.172,74.6383
561.517,74.6513
561.862,74.6898
562.207,74.7179
562.553,74.752
562.898,74.7478
563.243,74.7156
563.588,74.6902
563.933,74.6846
564.278,74.7149
564.623,74.7503
564.967,74.7531
565.312,74.7843
565.657,74.8016
566.002,74.737
566.346,74.687
566.691,74.7105
567.036,74.7331
567.38,74.7748
567.725,74.7436
568.069,74.7554
568.414,74.7538
568.758,74.7485
569.102,74.7072
569.447,74.7261
569.791,74.6949
570.135,74.724
570.479,74.6972
570.823,74.7191
571.167,74.7173
571.511,74.728
571.855,74.7538
572.199,74.7231
572.543,74.724
572.887,74.7268
573.231,74.7242
573.575,74.6996
573.918,74.7287
574.262,74.7033
574.606,74.7147
574.949,74.687
575.293,74.6816
575.636,74.6187
575.98,74.6327
576.323,74.6551
576.666,74.7131
577.01,74.7454
577.353,74.8037
577.696,74.7545
578.039,74.771
578.382,74.7829
578.725,74.7815
579.069,74.7834
579.411,74.8088
579.754,74.8037
580.097,74.7997
580.44,74.737
580.783,74.7312
581.126,74.727
581.468,74.7126
581.811,74.7294
582.154,74.7238
582.496,74.7412
582.839,74.7503
583.181,74.8195
583.524,74.9047
583.866,74.9145
584.209,74.8866
584.551,74.8735
584.893,74.8903
585.235,74.8444
585.578,74.8577
585.92,74.8859
586.262,74.8551
586.604,74.8598
586.946,74.8554
587.288,74.8575
587.63,74.8875
587.972,74.935
588.313,74.9553
588.655,75.0126
588.997,75.0535
589.339,75.0291
589.68,75.0545
590.022,75.0638
590.363,75.1197
590.705,75.1537
591.046,75.1141
591.388,75.0894
591.729,75.0344
592.07,74.9974
592.412,75.0256
592.753,75.0037
593.094,75.0368
593.435,75.0063
593.776,75.0263
594.117,74.9553
594.458,74.9122
594.799,74.8947
595.14,74.8901
595.481,74.9522
595.822,74.9883
596.163,75
596.504,75.0195
596.844,74.9853
597.185,74.9874
597.525,74.9238
597.866,74.8896
598.206,74.9052
598.547,74.8945
598.887,74.9008
599.228,74.8307
599.568,74.8428
599.908,74.8568
600.249,74.8654
600.589,74.8665
600.929,74.843
601.269,74.826
601.609,74.8127
601.949,74.8214
602.289,74.8041
602.629,74.8004
602.969,74.7769
603.308,74.7752
603.648,74.8316
603.988,74.8183
604.328,74.7697
604.667,74.7387
605.007,74.7529
605.346,74.7911
605.686,74.754
606.025,74.7182
606.365,74.6863
606.704,74.6872
607.043,74.6281
607.383,74.6488
607.722,74.5845
608.061,74.6076
608.4,74.5368
608.739,74.5249
609.078,74.5626
609.417,74.5538
609.756,74.526
610.095,74.5379
610.434,74.496
610.773,74.4909
611.111,74.5018
611.45,74.4625
611.789,74.435
612.127,74.3858
612.466,74.3309
612.805,74.2894
613.143,74.3141
613.481,74.3791
613.82,74.3956
614.158,74.3484
614.496,74.3351
614.835,74.2834
615.173,74.2976
615.511,74.255
615.849,74.2298
616.187,74.1986
616.525,74.193
616.863,74.1478
617.201,74.1483
617.539,74.1294
617.877,74.1565
618.215,74.1742
618.552,74.1427
618.89,74.122
619.228,74.1164
619.565,74.0889
619.903,74.0167
620.24,74.003
620.578,73.9911
620.915,74.0109
621.252,73.986
621.59,74.0104
621.927,74.0153
622.264,74.0014
622.601,73.9895
622.938,74.0223
623.276,74.0661
623.613,74.0584
623.95,74.0458
624.286,74.0291
624.623,74.0705
624.96,74.0209
625.297,73.9885
625.634,73.9927
625.97,74.0104
626.307,74.0372
626.644,74.0142
626.98,73.9827
627.317,73.972
627.653,73.9727
627.99,73.982
628.326,73.9953
628.662,73.9825
628.999,74.0095
629.335,74.0284
629.671,74.0794
630.007,74.0188
630.343,73.9823
630.679,73.9715
631.015,73.9816
631.351,73.9757
631.687,74.0319
632.023,74.1124
632.359,74.1462
632.694,74.142
633.03,74.1241
633.366,74.1311
633.701,74.0864
634.037,74.0661
634.373,74.0607
634.708,74.1113
635.043,74.1008
635.379,74.0726
635.714,74.0966
636.049,74.1599
636.385,74.196
636.72,74.2175
637.055,74.2203
637.39,74.2305
637.725,74.2205
638.06,74.2587
638.395,74.2671
638.73,74.238
639.065,74.2063
639.4,74.2238
639.734,74.1967
640.069,74.159
640.404,74.2063
640.738,74.2179
641.073,74.2496
641.407,74.2836
641.742,74.3255
642.076,74.3286
642.411,74.3195
642.745,74.3493
643.079,74.3644
643.414,74.4033
643.748,74.4245
644.082,74.3956
644.416,74.4196
644.75,74.374
645.084,74.4315
645.418,74.4371
645.752,74.4436
646.086,74.4613
646.419,74.4657
646.753,74.4143
647.087,74.3875
647.421,74.3852
647.754,74.4327
648.088,74.4757
648.421,74.49
648.755,74.5226
649.088,74.524
649.422,74.5158
649.755,74.5251
650.088,74.5104
650.421,74.4997
650.755,74.5391
651.088,74.4781
651.421,74.4259
651.754,74.4103
652.087,74.4383
652.42,74.4504
652.753,74.4157
653.085,74.4781
653.418,74.441
653.751,74.4674
654.084,74.4736
654.416,74.4604
654.749,74.4816
655.081,74.493
655.414,74.5174
655.746,74.486
656.079,74.5771
656.411,74.5181
656.743,74.5021
657.076,74.4743
657.408,74.4362
657.74,74.3973
658.072,74.3416
658.404,74.2817
658.736,74.3353
659.068,74.3793
659.4,74.4017
659.732,74.4154
660.064,74.4352
660.396,74.4196
660.727,74.3607
661.059,74.3702
661.391,74.3852
661.722,74.3644
662.054,74.4229
662.385,74.445
662.717,74.5007
663.048,74.4115
663.379,74.384
663.711,74.3679
664.042,74.3048
664.373,74.3241
664.704,74.3076
665.035,74.36
665.366,74.3598
665.697,74.3612
666.028,74.408
666.359,74.4324
666.69,74.5086
667.021,74.5018
667.351,74.4583
667.682,74.445
668.013,74.4438
668.343,74.5284
668.674,74.507
669.004,74.54
669.335,74.5158
669.665,74.5209
669.996,74.5077
670.326,74.5037
670.656,74.5284
670.986,74.4683
671.317,74.4876
671.647,74.5701
671.977,74.6327
672.307,74.6141
672.637,74.5617
672.967,74.595
673.297,74.5994
673.626,74.626
673.956,74.6357
674.286,74.6448
674.615,74.6658
674.945,74.7289
675.275,74.7417
675.604,74.8048
675.934,74.8328
676.263,74.8304
676.592,74.8207
676.922,74.8237
677.251,74.853
677.58,74.9131
677.909,74.9329
678.238,74.966
678.568,75.0216
678.897,75.0326
679.226,75.0324
679.554,75.0114
679.883,75.0172
680.212,75.0314
680.541,74.9876
680.87,74.9459
681.198,74.9646
681.527,75.0039
681.856,75.0186
682.184,75.0135
682.513,75.0482
682.841,75.0701
683.169,75.1318
683.498,75.1392
683.826,75.1502
684.154,75.187
684.482,75.1719
684.81,75.1323
685.139,75.1181
685.467,75.1777
685.795,75.1206
686.122,75.1986
686.45,75.1847
686.778,75.2357
687.106,75.2222
687.434,75.2615
687.761,75.2061
688.089,75.2175
688.417,75.1532
688.744,75.1325
689.072,75.0962
689.399,75.0612
689.726,75.0705
690.054,75.0535
690.381,75.0999
690.708,75.0962
691.035,75.0882
691.363,75.1157
691.69,75.1372
692.017,75.112
692.344,75.105
692.671,75.1113
692.997,75.0587
693.324,75.058
693.651,75.0864
693.978,75.0785
694.304,75.0985
694.631,75.0594
694.958,75.0249
695.284,75.0519
695.611,75.051
695.937,75.013
696.263,74.965
696.59,75.0505
696.916,75.05
697.242,75.0738
697.568,75.0573
697.895,75.0521
698.221,75.0382
698.547,74.9529
698.873,74.9152
699.198,74.8814
699.524,74.9008
699.85,74.891
700.176,74.9294
700.502,74.9262
700.827,74.9201
701.153,74.88
701.478,74.8896
701.804,74.9397
702.129,74.9455
702.455,74.8947
702.78,74.7967
703.106,74.7363
703.431,74.7624
703.756,74.7538
704.081,74.714
704.406,74.676
704.731,74.6581
705.056,74.7054
705.381,74.7452
705.706,74.7892
706.031,74.7685
706.356,74.7694
706.681,74.7778
707.005,74.7776
707.33,74.7261
707.655,74.6492
707.979,74.652
708.304,74.6364
708.628,74.6499
708.952,74.632
709.277,74.6008
709.601,74.5864
709.925,74.6187
710.25,74.6572
710.574,74.6406
710.898,74.6264
711.222,74.5824
711.546,74.561
711.87,74.5514
712.194,74.5323
712.517,74.4967
712.841,74.547
713.165,74.5354
713.489,74.5512
713.812,74.4734
714.136,74.4799
714.459,74.489
714.783,74.4743
715.106,74.4939
715.43,74.4608
715.753,74.4592
716.076,74.4259
716.399,74.4592
716.723,74.4289
717.046,74.4196
717.369,74.3719
717.692,74.3949
718.015,74.4082
718.338,74.3945
718.661,74.3812
718.983,74.3488
719.306,74.347
719.629,74.3164
719.951,74.3558
720.274,74.3591
720.597,74.2934
720.919,74.3237
721.242,74.3041
721.564,74.3218
721.886,74.2827
722.209,74.3393
722.531,74.2957
722.853,74.3623
723.175,74.3761
723.497,74.4424
723.819,74.4667
724.141,74.4678
724.463,74.4376
724.785,74.4317
725.107,74.4676
725.429,74.4764
725.75,74.4699
726.072,74.4688
726.394,74.5265
726.715,74.5298
727.037,74.4902
727.358,74.5256
727.68,74.4771
728.001,74.4653
728.322,74.4112
728.643,74.4424
728.965,74.4212
729.286,74.4026
729.607,74.4441
729.928,74.4396
730.249,74.4329
730.57,74.4164
730.891,74.4301
731.212,74.4247
731.532,74.3686
731.853,74.3966
732.174,74.3968
732.494,74.3595
732.815,74.3924
733.136,74.442
733.456,74.432
733.776,74.3726
734.097,74.3358
734.417,74.3763
734.737,74.397
735.058,74.4171
735.378,74.3819
735.698,74.4068
736.018,74.4001
736.338,74.3903
736.658,74.394
736.978,74.3768
737.298,74.3761
737.617,74.4005
737.937,74.364
738.257,74.3898
738.577,74.4268
738.896,74.4329
739.216,74.4713
739.535,74.5265
739.855,74.5368
740.174,74.5249
740.493,74.507
740.812,74.5172
741.132,74.5284
741.451,74.5961
741.77,74.591
742.089,74.5589
742.408,74.5787
742.727,74.5647
743.046,74.5838
743.365,74.5594
743.684,74.5738
744.002,74.5989
744.321,74.6218
744.64,74.6162
744.958,74.5994
745.277,74.6043
745.595,74.5822
745.914,74.5803
746.232,74.6204
746.55,74.5982
746.869,74.6385
747.187,74.6229
747.505,74.6462
747.823,74.6651
748.141,74.6374
748.459,74.6649
748.777,74.6895
749.095,74.6511
749.413,74.6651
749.731,74.6597
750.048,74.6262
750.366,74.5715
750.684,74.5687
751.001,74.5468
751.319,74.602
751.636,74.5661
751.954,74.6078
752.271,74.6241
752.588,74.6432
752.906,74.6159
753.223,74.615
753.54,74.6078
753.857,74.615
754.174,74.6579
754.491,74.6239
754.808,74.6851
755.125,74.6767
755.442,74.6774
755.758,74.6839
756.075,74.635
756.392,74.5968
756.708,74.6576
757.025,74.6416
757.342,74.6462
757.658,74.7037
757.974,74.6898
758.291,74.7117
758.607,74.7191
758.923,74.7615
759.239,74.7818
759.556,74.7762
759.872,74.7419
760.188,74.7613
760.504,74.7662
760.82,74.7948
761.135,74.7662
761.451,74.7785
761.767,74.754
762.083,74.7841
762.398,74.8216
762.714,74.8367
763.03,74.8577
763.345,74.8516
763.661,74.8649
763.976,74.8337
764.291,74.8495
764.607,74.8067
764.922,74.826
765.237,74.8493
765.552,74.8672
765.867,74.8234
766.182,74.8104
766.497,74.809
766.812,74.8409
767.127,74.9096
767.442,74.9194
767.756,74.9623
768.071,74.948
768.386,74.9825
768.7,75.0153
769.015,74.9979
769.329,74.9813
769.644,74.9976
769.958,74.9779
770.272,75.0263
770.587,75.0647
770.901,75.0214
771.215,74.9967
771.529,75.0328
771.843,75.0317
772.157,75.0591
772.471,75.0598
772.785,75.0533
773.099,75.0419
773.412,75.0535
773.726,75.0421
774.04,75.0584
774.353,75.0684
774.667,75.0582
774.98,75.0985
775.294,75.1101
775.607,75.1048
775.921,75.108
776.234,75.102
776.547,75.1546
776.86,75.1076
777.173,75.0929
777.486,75.0526
777.799,75.075
778.112,75.0379
778.425,75.0126
778.738,75.0095
779.051,74.972
779.364,75.0624
779.676,75.092
779.989,75.1351
780.302,75.0908
780.614,75.0992
780.927,75.1427
781.239,75.1947
781.551,75.2291
781.864,75.2196
782.176,75.2531
782.488,75.2576
782.8,75.2773
783.112,75.2608
783.424,75.2406
783.736,75.2701
784.048,75.2869
784.36,75.2785
784.672,75.2762
784.984,75.224
785.295,75.2275
785.607,75.1562
785.918,75.1844
786.23,75.2024
786.541,75.1392
786.853,75.0906
787.164,75.0514
787.476,75.0212
787.787,75.024
788.098,75.0226
788.409,74.9501
788.72,74.9746
789.031,74.9473
789.342,74.9313
789.653,74.9907
789.964,74.9464
790.275,74.9727
790.586,75.0063
790.896,75.0165
791.207,74.9986
791.518,75.0268
791.828,75.0368
792.139,75.0195
792.449,75.0761
792.759,75.1064
793.07,75.1153
793.38,75.1024
793.69,75.098
794,75.1325
794.31,75.1341
794.62,75.1239
794.93,75.1031
795.24,75.0994
795.55,75.0379
795.86,75.0631
796.17,75.0743
796.48,75.0955
796.789,75.1232
797.099,75.1325
797.408,75.1395
797.718,75.0845
798.027,75.0815
798.337,75.0535
798.646,75.0622
798.955,75.0664
799.264,75.078
799.574,75.1183
799.883,75.1136
800.192,75.1099
800.501,75.0736
800.81,75.0582
801.119,75.108
801.427,75.0684
801.736,75.0135
802.045,75.0007
802.354,74.9746
802.662,74.9012
802.971,74.9164
803.279,74.9005
803.588,74.8605
803.896,74.8374
804.204,74.8223
804.513,74.7766
804.821,74.7552
805.129,74.7799
805.437,74.728
805.745,74.7452
806.053,74.751
806.361,74.8062
806.669,74.7806
806.977,74.7382
807.284,74.6963
807.592,74.735
807.9,74.7352
808.207,74.7501
808.515,74.7964
808.822,74.8118
809.13,74.7897
809.437,74.7585
809.745,74.7261
810.052,74.7494
810.359,74.735
810.666,74.7121
810.973,74.6863
811.28,74.6723
811.587,74.6353
811.894,74.6215
812.201,74.5971
812.508,74.5941
812.815,74.6157
813.121,74.6211
813.428,74.5899
813.734,74.601
814.041,74.592
814.347,74.5973
814.654,74.567
814.96,74.5281
815.267,74.5251
815.573,74.5437
815.879,74.5612
816.185,74.5708
816.491,74.6171
816.797,74.6213
817.103,74.5943
817.409,74.5507
817.715,74.5375
818.021,74.5405
818.326,74.5675
818.632,74.5836
818.938,74.6213
819.243,74.6071
819.549,74.6555
819.854,74.6569
820.16,74.6441
820.465,74.6479
820.77,74.5989
821.076,74.5973
821.381,74.523
821.686,74.5279
821.991,74.5731
822.296,74.5778
822.601,74.5286
822.906,74.5652
823.211,74.5104
823.515,74.4657
823.82,74.4571
824.125,74.4774
824.429,74.4301
824.734,74.3877
825.038,74.3863
825.343,74.3535
825.647,74.3463
825.951,74.312
826.256,74.3062
826.56,74.279
826.864,74.3386
827.168,74.3509
827.472,74.3805
827.776,74.3875
828.08,74.4152
828.384,74.3991
828.688,74.4392
828.992,74.4711
829.295,74.4832
829.599,74.479
829.902,74.4082
830.206,74.4303
830.509,74.4434
830.813,74.4576
831.116,74.4401
831.419,74.4313
831.723,74.4187
832.026,74.3726
832.329,74.3314
832.632,74.2873
832.935,74.3167
833.238,74.3498
833.541,74.3346
833.844,74.3588
834.147,74.3015
834.449,74.2948
834.752,74.3081
835.054,74.3027
835.357,74.3113
835.66,74.3213
835.962,74.2892
836.264,74.2783
836.567,74.2734
836.869,74.2026
837.171,74.1595
837.473,74.1576
837.775,74.156
838.077,74.1795
838.379,74.1341
838.681,74.1772
838.983,74.1786
839.285,74.2177
839.587,74.2068
839.888,74.1825
840.19,74.1886
840.492,74.1874
840.793,74.2119
841.094,74.1674
841.396,74.1185
841.697,74.0878
841.999,74.1136
842.3,74.108
842.601,74.1003
842.902,74.0915
843.203,74.0572
843.504,74.0554
843.805,74.0274
844.106,74.0058
844.407,73.9552
844.707,73.9392
845.008,73.9578
845.309,73.918
845.609,73.8812
845.91,73.8926
846.21,73.86
846.511,73.9503
846.811,73.9494
847.111,74.0121
847.412,73.9953
847.712,74.0088
848.012,74.0517
848.312,74.0857
848.612,74.1103
848.912,74.1553
849.212,74.1702
849.512,74.1469
849.811,74.1765
850.111,74.1446
850.411,74.1674
850.71,74.1842
851.01,74.1762
851.309,74.2282
851.609,74.2182
851.908,74.1779
852.208,74.1509
852.507,74.2452
852.806,74.1516
853.105,76.9134
853.404,67.9725
853.703,66.6618
854.002,71.1089
854.301,77.5219
854.6,72.4196
854.899,69.2364
855.197,77.2411
855.496,67.5513
855.795,69.9386
856.093,69.845
856.392,71.1089
856.69,70.079
856.988,79.7688
857.287,80.0497
857.585,79.8157
857.883,77.007
858.181,72.56
858.479,71.7174
858.777,84.3095
859.075,83.7009
859.373,79.6284
859.671,71.4834
859.969,74.7133
860.267,76.3517
860.564,74.1984
860.862,80.6583
861.16,68.5811
861.457,70.2663
861.754,74.1984
862.052,72.9345
862.349,72.5132
862.646,71.1089
862.944,80.7519
863.241,81.5477
863.538,73.4494
863.835,70.3599
864.132,72.2323
864.429,71.4834
864.726,71.8578
865.022,73.7771
865.319,72.56
865.616,74.9942
865.912,72.7941
866.209,72.6536
866.505,70.1727
866.802,64.5086
867.098,69.9854
867.394,73.8239
867.691,74.6665
867.987,75.3686
868.283,71.9046
868.579,76.5857
868.875,66.4746
869.171,78.4581
869.467,69.9854
869.763,70.4067
870.059,71.0152
870.354,74.8537
870.65,77.0538
870.946,77.7092
871.241,70.0322
871.537,66.2406
871.832,77.3815
872.127,73.5898
872.423,78.9263
872.718,77.1474
873.013,74.6197
873.308,75.5559
873.603,72.7004
873.898,69.2364
874.193,67.2236
874.488,68.5811
874.783,73.3558
875.078,72.7941
875.372,73.7303
875.667,68.862
875.962,74.9942
876.256,83.4669
876.551,79.2071
876.845,79.0199
877.139,77.4283
877.434,76.1176
877.728,77.0538
878.022,72.8877
878.316,78.3645
878.61,77.4751
878.904,72.4196
879.198,70.5471
879.492,75.7431
879.786,75.1346
880.08,73.5898
880.373,76.5857
880.667,81.9221
880.961,82.2498
881.254,75.4623
881.548,68.5811
881.841,69.2364
EndSpectrumFile,CALIBRATION
SpectrumFile,CALIBRATION
Version,1.000000
Location,
Customer,
SampleInfo,
GPSData,51.118462,-114.185340,1172.000000,8150,230311
SystemTime,2011,3,23,2,17,32,155
Pipe km,0.000000
Pre-Dilution Factor,1.000000
Freeform Info,
Concentration,10.000000
CalibrationName,USB2000 darkness
Unique Calibration File ID,
CalibrationWavelength,700.000000
CalibrationType,2,0.000000,3.892943
CalibrationRSquared,1.000000
CalibrationConcentrations [ppm],2,0.000000,10.000000
CalibrationCounts,2,0.000000,2.568751
CalibrationWarnLow,0.000000
CalibrationWarnHigh,10.000000
CalibrationErrorLow,0.000000
CalibrationErrorHigh,0.000000
Spectrometer Name,USB2000+
Spectrometer Serial,USB2+H02265
IntegrationTime [ms],0.000000
AveragedSpectra,-858993460
BoxcarWidth,-858993460
WavelengthRange [nm],178.541230,881.840970
IntensityRange [counts],-72.789847,94.371214
WavelengthCount,2048
Wavelength [nm],Intensity [counts]
178.541,65.1145
178.924,65.1145
179.307,65.1145
179.689,8.14588
180.072,-11.7955
180.454,-26.2132
180.837,-40.7713
181.219,-47.8397
181.602,-50.2739
181.984,-61.6021
182.367,-62.3511
182.749,-58.6998
183.131,-59.2616
183.514,-62.866
183.896,-63.8958
184.278,-72.7898
184.661,-60.8999
185.043,-59.3552
185.425,-52.2399
185.807,-30.473
186.189,-35.0604
186.571,-29.724
186.954,-32.6263
187.336,-16.8042
187.718,-10.438
188.1,-17.366
188.482,3.60524
188.864,2.29454
189.245,7.49053
189.627,15.1207
190.009,16.2441
190.391,17.4612
190.773,29.1639
191.155,39.4154
191.536,48.4031
191.918,45.4072
192.3,43.0199
192.682,50.7436
193.063,60.5271
193.445,65.0209
193.826,60.9016
194.208,67.6423
194.589,63.9442
194.971,63.2889
195.352,62.2123
195.734,69.6083
196.115,73.2128
196.497,69.0466
196.878,79.2982
197.259,74.0086
197.641,76.6768
198.022,71.7148
198.403,74.0554
198.784,81.6855
199.166,84.2133
199.547,79.7195
199.928,72.7447
200.309,75.9278
200.69,73.8213
201.071,81.4046
201.452,74.2426
201.833,72.417
202.214,75.9278
202.595,68.6721
202.976,68.1104
203.357,70.7786
203.738,77.9875
204.119,79.6258
204.499,70.4509
204.88,63.8506
205.261,68.6721
205.642,73.2596
206.022,55.1906
206.403,60.9016
206.784,60.5271
207.164,68.6253
207.545,69.4679
207.925,63.757
208.306,66.5188
208.686,65.3486
209.067,69.8424
209.447,59.4504
209.828,66.0039
210.208,61.791
210.588,68.9998
210.969,66.3316
211.349,68.0636
211.729,63.2421
212.109,66.1912
212.49,73.5873
212.87,68.953
213.25,67.6423
213.63,61.4633
214.01,72.7447
214.39,61.2292
214.77,69.2339
215.15,67.7827
215.53,69.6083
215.91,71.8084
216.29,64.4592
216.67,54.1596
217.05,54.1916
217.429,54.2265
217.809,54.2519
218.189,54.6247
218.569,55.053
218.948,55.5076
219.328,56.0388
219.708,56.6551
220.087,57.2349
220.467,57.8668
220.847,58.5114
221.226,59.1735
221.606,59.8303
221.985,60.5026
222.364,61.2059
222.744,61.8946
223.123,62.5693
223.503,63.2065
223.882,63.8229
224.261,64.3385
224.641,64.8763
225.02,65.3879
225.399,65.8926
225.778,66.3435
226.157,66.741
226.536,67.1292
226.916,67.4695
227.295,67.8421
227.674,68.1656
228.053,68.4886
228.432,68.7716
228.811,69.0538
229.189,69.2383
229.568,69.412
229.947,69.5606
230.326,69.6971
230.705,69.8354
231.084,69.9514
231.462,70.0401
231.841,70.0713
232.22,70.0972
232.598,70.1365
232.977,70.2213
233.356,70.3245
233.734,70.3992
234.113,70.426
234.491,70.406
234.87,70.4453
235.248,70.4339
235.627,70.3978
236.005,70.3848
236.383,70.3636
236.762,70.3909
237.14,70.2947
237.518,70.2562
237.896,70.2262
238.275,70.256
238.653,70.2497
239.031,70.2395
239.409,70.1885
239.787,70.2071
240.165,70.2399
240.543,70.2094
240.921,70.2325
241.299,70.2751
241.677,70.2849
242.055,70.2497
242.433,70.2017
242.811,70.1358
243.188,70.1601
243.566,70.2113
243.944,70.181
244.322,70.3068
244.699,70.3759
245.077,70.4689
245.455,70.4821
245.832,70.5171
246.21,70.5723
246.587,70.6063
246.965,70.623
247.342,70.5907
247.72,70.6263
248.097,70.6668
248.475,70.7421
248.852,70.7549
249.229,70.8012
249.607,70.8694
249.984,70.9034
250.361,70.971
250.738,70.9761
251.116,71.0327
251.493,71.0879
251.87,71.1908
252.247,71.1883
252.624,71.1925
253.001,71.2276
253.378,71.2274
253.755,71.2381
254.132,71.2558
254.509,71.3091
254.886,71.3343
255.263,71.3292
255.639,71.4028
256.016,71.491
256.393,71.5194
256.77,71.5451
257.146,71.5339
257.523,71.5574
257.9,71.5893
258.276,71.6464
258.653,71.6559
259.029,71.6899
259.406,71.7172
259.782,71.6787
260.159,71.7234
260.535,71.7717
260.912,71.8294
261.288,71.8888
261.664,71.9424
262.041,71.9286
262.417,71.9179
262.793,71.9743
263.169,72.039
263.545,72.0711
263.922,72.1641
264.298,72.2228
264.674,72.2649
265.05,72.2805
265.426,72.3294
265.802,72.3998
266.178,72.4172
266.554,72.4808
266.93,72.5448
267.305,72.5742
267.681,72.566
268.057,72.5795
268.433,72.6152
268.809,72.6513
269.184,72.6669
269.56,72.6555
269.936,72.7249
270.311,72.7002
270.687,72.6979
271.062,72.7279
271.438,72.7428
271.813,72.846
272.189,72.8159
272.564,72.8709
272.94,72.9091
273.315,72.9843
273.69,73.0039
274.066,73.0358
274.441,73.1089
274.816,73.1364
275.191,73.1809
275.566,73.2284
275.942,73.2051
276.317,73.22
276.692,73.2549
277.067,73.2815
277.442,73.3513
277.817,73.3798
278.192,73.3586
278.567,73.3737
278.942,73.451
279.316,73.5265
279.691,73.5009
280.066,73.492
280.441,73.5339
280.816,73.5623
281.19,73.543
281.565,73.5854
281.94,73.6248
282.314,73.6401
282.689,73.7051
283.063,73.7442
283.438,73.8348
283.812,73.7927
284.187,73.8201
284.561,73.8844
284.935,73.931
285.31,73.9846
285.684,73.9953
286.058,74.0668
286.433,74.0335
286.807,74.0498
287.181,74.0083
287.555,74.0328
287.929,74.0214
288.303,74.0787
288.678,74.125
289.052,74.1453
289.426,74.1993
289.8,74.2142
290.173,74.2328
290.547,74.2352
290.921,74.2158
291.295,74.2589
291.669,74.2827
292.043,74.3011
292.416,74.2915
292.79,74.2596
293.164,74.241
293.537,74.2601
293.911,74.2182
294.285,74.1944
294.658,74.2361
295.032,74.2924
295.405,74.3029
295.779,74.3111
296.152,74.3933
296.525,74.4126
296.899,74.4019
297.272,74.4017
297.645,74.4292
298.019,74.4201
298.392,74.4599
298.765,74.4576
299.138,74.5221
299.511,74.5228
299.884,74.51
300.258,74.5558
300.631,74.5705
301.004,74.5861
301.376,74.5775
301.749,74.6234
302.122,74.6972
302.495,74.7338
302.868,74.7359
303.241,74.7575
303.614,74.7629
303.986,74.7892
304.359,74.7661
304.732,74.7899
305.104,74.7862
305.477,74.7573
305.85,74.7999
306.222,74.8509
306.595,74.853
306.967,74.8595
307.34,74.9152
307.712,74.9671
308.084,74.9643
308.457,74.9161
308.829,74.9259
309.201,74.9143
309.573,74.9171
309.946,74.9476
310.318,74.9294
310.69,74.9739
311.062,75.0617
311.434,75.0535
311.806,75.0829
312.178,75.0435
312.55,75.152
312.922,75.1646
313.294,75.1849
313.666,75.1667
314.038,75.1402
314.41,75.2161
314.781,75.2606
315.153,75.2699
315.525,75.2487
315.897,75.3213
316.268,75.3449
316.64,75.3442
317.011,75.3234
317.383,75.3411
317.755,75.3761
318.126,75.4758
318.498,75.4921
318.869,75.4681
319.24,75.5526
319.612,75.5051
319.983,75.4981
320.354,75.476
320.726,75.4723
321.097,75.4534
321.468,75.513
321.839,75.5251
322.21,75.5533
322.581,75.619
322.952,75.6875
323.323,75.6865
323.694,75.6765
324.065,75.7208
324.436,75.728
324.807,75.7215
325.178,75.7403
325.549,75.7024
325.92,75.7287
326.29,75.7012
326.661,75.7177
327.032,75.6847
327.402,75.7166
327.773,75.775
328.144,75.7988
328.514,75.8311
328.885,75.8488
329.255,75.8763
329.626,75.932
329.996,75.9366
330.366,75.9604
330.737,75.9434
331.107,75.8821
331.477,75.932
331.848,75.9662
332.218,76.0284
332.588,76.091
332.958,76.1595
333.328,76.1749
333.698,76.1742
334.068,76.1933
334.438,76.1938
334.808,76.2457
335.178,76.2052
335.548,76.2448
335.918,76.3027
336.288,76.3249
336.658,76.2948
337.027,76.3235
337.397,76.3584
337.767,76.3328
338.137,76.3435
338.506,76.3197
338.876,76.3472
339.245,76.377
339.615,76.367
339.984,76.3763
340.354,76.3873
340.723,76.4015
341.093,76.4697
341.462,76.4711
341.831,76.4304
342.201,76.4429
342.57,76.496
342.939,76.5277
343.308,76.5436
343.677,76.5298
344.047,76.5659
344.416,76.6274
344.785,76.643
345.154,76.6814
345.523,76.6807
345.892,76.7084
346.261,76.7355
346.629,76.7061
346.998,76.7545
347.367,76.7401
347.736,76.7692
348.105,76.7257
348.473,76.7562
348.842,76.8165
349.211,76.8284
349.579,76.8549
349.948,76.8617
350.316,76.847
350.685,76.8999
351.053,76.8729
351.422,76.8743
351.79,76.84
352.159,76.8158
352.527,76.7967
352.895,76.7783
353.263,76.7473
353.632,76.7035
354,76.6367
354.368,76.6341
354.736,76.6137
355.104,76.6355
355.472,76.6348
355.84,76.691
356.208,76.6858
356.576,76.6584
356.944,76.6882
357.312,76.6556
357.68,76.6141
358.048,76.6157
358.415,76.6497
358.783,76.6539
359.151,76.5957
359.518,76.598
359.886,76.5675
360.254,76.6036
360.621,76.5773
360.989,76.579
361.356,76.5822
361.724,76.6088
362.091,76.6001
362.459,76.6388
362.826,76.6372
363.193,76.6369
363.56,76.6705
363.928,76.684
364.295,76.6537
364.662,76.6407
365.029,76.639
365.396,76.6768
365.763,76.629
366.13,76.6011
366.497,76.6192
366.864,76.6442
367.231,76.6921
367.598,76.7762
367.965,76.7976
368.332,76.8007
368.699,76.844
369.065,76.8626
369.432,76.8701
369.799,76.8442
370.165,76.8701
370.532,76.8139
370.899,76.857
371.265,76.8752
371.632,76.8945
371.998,76.9008
372.365,76.8638
372.731,76.8607
373.097,76.8638
373.464,76.8503
373.83,76.8663
374.196,76.8882
374.562,76.898
374.929,76.8852
375.295,76.9329
375.661,76.9541
376.027,76.9553
376.393,76.9746
376.759,76.976
377.125,76.9863
377.491,76.9942
377.857,76.9956
378.223,76.9567
378.588,76.9961
378.954,77.0044
379.32,77.0356
379.686,77.1053
380.051,77.0531
380.417,77.0349
380.783,77.0552
381.148,77.037
381.514,77.0214
381.879,77.0233
382.245,77.0515
382.61,77.0883
382.976,77.0422
383.341,77.0834
383.706,77.0988
384.071,77.0846
384.437,77.1272
384.802,77.0708
385.167,76.9858
385.532,77.0349
385.897,77.071
386.262,77.0776
386.627,77.0468
386.992,77.0354
387.357,77.0394
387.722,77.0662
388.087,77.1137
388.452,77.0547
388.817,77.0552
389.182,77.0559
389.546,77.079
389.911,77.0396
390.276,77.0738
390.64,77.0485
391.005,77.0899
391.37,77.0971
391.734,77.1023
392.099,77.0794
392.463,77.1181
392.827,77.1274
393.192,77.0645
393.556,77.1085
393.92,77.1339
394.285,77.1698
394.649,77.1877
395.013,77.2273
395.377,77.2108
395.741,77.2084
396.105,77.239
396.47,77.2536
396.834,77.2425
397.198,77.2706
397.561,77.3167
397.925,77.2837
398.289,77.2695
398.653,77.2783
399.017,77.3337
399.381,77.3622
399.744,77.3058
400.108,77.3074
400.472,77.2667
400.835,77.2951
401.199,77.2592
401.562,77.2774
401.926,77.2255
402.289,77.2157
402.653,77.2529
403.016,77.2588
403.379,77.205
403.743,77.2327
404.106,77.293
404.469,77.3109
404.832,77.3643
405.196,77.3489
405.559,77.3519
405.922,77.3263
406.285,77.3228
406.648,77.3382
407.011,77.3459
407.374,77.3764
407.737,77.3857
408.1,77.4059
408.462,77.425
408.825,77.4875
409.188,77.4576
409.551,77.4157
409.913,77.4015
410.276,77.4134
410.639,77.4337
411.001,77.4453
411.364,77.4488
411.726,77.4868
412.089,77.5331
412.451,77.5317
412.814,77.5471
413.176,77.5534
413.538,77.5112
413.9,77.527
414.263,77.4709
414.625,77.4439
414.987,77.4476
415.349,77.4351
415.711,77.4316
416.073,77.3971
416.435,77.429
416.797,77.4718
417.159,77.4798
417.521,77.4511
417.883,77.4357
418.245,77.4017
418.607,77.3871
418.968,77.4066
419.33,77.4323
419.692,77.4667
420.053,77.5273
420.415,77.5368
420.776,77.6151
421.138,77.5885
421.499,77.572
421.861,77.5319
422.222,77.572
422.584,77.527
422.945,77.527
423.306,77.5056
423.668,77.4274
424.029,77.4127
424.39,77.4034
424.751,77.3927
425.112,77.4241
425.473,77.3959
425.834,77.4455
426.195,77.4684
426.556,77.4881
426.917,77.5331
427.278,77.5573
427.639,77.578
428,77.6239
428.36,77.5995
428.721,77.6647
429.082,77.6477
429.443,77.6409
429.803,77.6451
430.164,77.6733
430.524,77.6801
430.885,77.6696
431.245,77.647
431.606,77.6328
431.966,77.6228
432.326,77.6596
432.687,77.6654
433.047,77.6777
433.407,77.6672
433.767,77.6819
434.128,77.7488
434.488,77.7748
434.848,77.8368
435.208,77.8116
435.568,77.7944
435.928,77.7581
436.288,77.7203
436.648,77.7217
437.007,77.6903
437.367,77.7089
437.727,77.6794
438.087,77.6535
438.446,77.6093
438.806,77.6297
439.166,77.684
439.525,77.66
439.885,77.681
440.244,77.7348
440.604,77.6954
440.963,77.7078
441.323,77.712
441.682,77.6761
442.041,77.7106
442.4,77.7024
442.76,77.7308
443.119,77.7548
443.478,77.7865
443.837,77.7732
444.196,77.783
444.555,77.7937
444.914,77.786
445.273,77.8258
445.632,77.8368
445.991,77.8349
446.35,77.857
446.709,77.8449
447.067,77.8359
447.426,77.8333
447.785,77.8843
448.143,77.8445
448.502,77.8477
448.861,77.8247
449.219,77.8156
449.578,77.7725
449.936,77.7783
450.295,77.7963
450.653,77.7748
451.011,77.797
451.37,77.7825
451.728,77.7951
452.086,77.7916
452.444,77.7283
452.802,77.7502
453.16,77.7646
453.519,77.7653
453.877,77.7844
454.235,77.7979
454.592,77.7818
454.95,77.7695
455.308,77.7602
455.666,77.789
456.024,77.7005
456.382,77.6961
456.739,77.711
457.097,77.6747
457.455,77.6444
457.812,77.6773
458.17,77.6579
458.527,77.6467
458.885,77.663
459.242,77.688
459.6,77.6663
459.957,77.6544
460.314,77.637
460.672,77.6372
461.029,77.6605
461.386,77.6365
461.743,77.5936
462.1,77.5839
462.457,77.5936
462.814,77.5757
463.171,77.5811
463.528,77.6058
463.885,77.6249
464.242,77.5992
464.599,77.6027
464.956,77.5808
465.313,77.5855
465.669,77.5932
466.026,77.5829
466.383,77.5955
466.739,77.5513
467.096,77.5697
467.452,77.5541
467.809,77.5296
468.165,77.5459
468.522,77.5412
468.878,77.4723
469.234,77.4602
469.591,77.4637
469.947,77.3922
470.303,77.4004
470.659,77.3994
471.015,77.3435
471.371,77.3272
471.728,77.3459
472.084,77.3931
472.439,77.3831
472.795,77.4167
473.151,77.4362
473.507,77.4458
473.863,77.4495
474.219,77.4693
474.574,77.4404
474.93,77.405
475.286,77.3782
475.641,77.3708
475.997,77.3943
476.352,77.3719
476.708,77.3582
477.063,77.3254
477.419,77.3601
477.774,77.3244
478.13,77.3752
478.485,77.4006
478.84,77.3233
479.195,77.3004
479.55,77.2869
479.906,77.2802
480.261,77.3102
480.616,77.2378
480.971,77.204
481.326,77.1488
481.681,77.2112
482.035,77.1921
482.39,77.2087
482.745,77.2313
483.1,77.2273
483.455,77.2755
483.809,77.2234
484.164,77.1901
484.518,77.1558
484.873,77.1039
485.228,77.0832
485.582,77.1253
485.936,77.1393
486.291,77.1726
486.645,77.1782
487,77.1651
487.354,77.1817
487.708,77.2136
488.062,77.2429
488.416,77.2192
488.771,77.1593
489.125,77.1577
489.479,77.1381
489.833,77.1467
490.187,77.1749
490.54,77.2052
490.894,77.174
491.248,77.1467
491.602,77.1002
491.956,77.031
492.309,77.0415
492.663,77.0189
493.017,77.0084
493.37,77.0412
493.724,77.0617
494.077,77.0713
494.431,77.089
494.784,77.0452
495.138,77.075
495.491,77.1183
495.844,77.1209
496.197,77.1386
496.551,77.1498
496.904,77.1216
497.257,77.1363
497.61,77.1006
497.963,77.1097
498.316,77.164
498.669,77.164
499.022,77.1805
499.375,77.1675
499.728,77.1092
500.08,77.0643
500.433,76.9888
500.786,76.9586
501.139,76.9411
501.491,76.9402
501.844,76.8773
502.196,76.9001
502.549,76.9292
502.901,76.9257
503.254,76.9085
503.606,76.9274
503.959,76.9076
504.311,76.9036
504.663,76.8966
505.015,76.9062
505.368,76.9334
505.72,76.8796
506.072,76.8514
506.424,76.7962
506.776,76.86
507.128,76.8752
507.48,76.9043
507.832,76.9485
508.183,76.9362
508.535,76.9464
508.887,76.8975
509.239,76.9369
509.59,76.9327
509.942,76.9714
510.294,76.9809
510.645,76.9248
510.997,76.9718
511.348,76.9308
511.7,76.8868
512.051,76.8652
512.402,76.8414
512.754,76.8538
513.105,76.878
513.456,76.8559
513.807,76.8531
514.159,76.8356
514.51,76.8468
514.861,76.8703
515.212,76.8447
515.563,76.843
515.914,76.8237
516.265,76.806
516.615,76.8177
516.966,76.8286
517.317,76.8354
517.668,76.796
518.018,76.7613
518.369,76.8125
518.72,76.7895
519.07,76.7352
519.421,76.7303
519.771,76.7366
520.122,76.7522
520.472,76.7715
520.822,76.8184
521.173,76.7587
521.523,76.7718
521.873,76.7709
522.223,76.7562
522.573,76.7725
522.923,76.7948
523.273,76.7743
523.623,76.8046
523.973,76.8307
524.323,76.7601
524.673,76.7368
525.023,76.7438
525.373,76.7313
525.723,76.7042
526.072,76.6968
526.422,76.6896
526.772,76.6882
527.121,76.7627
527.471,76.7499
527.82,76.7634
528.17,76.7806
528.519,76.8351
528.868,76.8829
529.218,76.8468
529.567,76.8079
529.916,76.8361
530.265,76.8093
530.615,76.8132
530.964,76.7851
531.313,76.8076
531.662,76.8216
532.011,76.755
532.36,76.8002
532.709,76.8286
533.058,76.8726
533.406,76.858
533.755,76.8447
534.104,76.8491
534.452,76.7909
534.801,76.7785
535.15,76.8088
535.498,76.8277
535.847,76.8316
536.195,76.8631
536.544,76.8796
536.892,76.851
537.24,76.8265
537.589,76.8335
537.937,76.8188
538.285,76.8389
538.633,76.824
538.982,76.7818
539.33,76.7657
539.678,76.8337
540.026,76.8125
540.374,76.8291
540.722,76.8873
541.069,76.9001
541.417,76.9222
541.765,76.9392
542.113,76.9364
542.46,76.9378
542.808,76.9339
543.156,76.9765
543.503,76.9541
543.851,76.8878
544.198,76.8931
544.546,76.9034
544.893,76.9017
545.24,76.9537
545.588,76.9455
545.935,76.9881
546.282,77.0352
546.629,77.02
546.977,77.003
547.324,77.0163
547.671,77.0461
548.018,77.0221
548.365,77.0305
548.712,77.0303
549.058,76.9842
549.405,77.0084
549.752,76.9937
550.099,76.9993
550.446,76.9674
550.792,76.9395
551.139,77.0044
551.485,76.9907
551.832,77.0349
552.178,77.0012
552.525,77.041
552.871,77.0506
553.218,77.0124
553.564,77.0198
553.91,76.9539
554.256,76.9756
554.603,77.0275
554.949,77.0193
555.295,77.0506
555.641,77.1006
555.987,77.0974
556.333,77.0878
556.679,77.086
557.025,77.0999
557.37,77.096
557.716,77.0999
558.062,77.0748
558.408,77.1134
558.753,77.1153
559.099,77.1174
559.444,77.1202
559.79,77.1502
560.135,77.1428
560.481,77.1297
560.826,77.0988
561.172,77.0778
561.517,77.0915
561.862,77.1036
562.207,77.1074
562.553,77.0736
562.898,77.0769
563.243,77.0981
563.588,77.0526
563.933,77.0533
564.278,76.9839
564.623,76.9844
564.967,76.9874
565.312,76.949
565.657,76.9534
566.002,76.9944
566.346,77.0261
566.691,77.0354
567.036,77.0557
567.38,77.0161
567.725,77.0168
568.069,77.0103
568.414,76.9744
568.758,76.9714
569.102,76.9951
569.447,77.0079
569.791,77.0403
570.135,77.0554
570.479,77.0792
570.823,77.0827
571.167,77.1153
571.511,77.1628
571.855,77.1747
572.199,77.1651
572.543,77.1581
572.887,77.1656
573.231,77.1875
573.575,77.1607
573.918,77.1521
574.262,77.204
574.606,77.1735
574.949,77.1733
575.293,77.1698
575.636,77.2201
575.98,77.2546
576.323,77.3612
576.666,77.3403
577.01,77.3135
577.353,77.3084
577.696,77.2844
578.039,77.2699
578.382,77.2818
578.725,77.3109
579.069,77.2653
579.411,77.3007
579.754,77.2958
580.097,77.3144
580.44,77.31
580.783,77.2879
581.126,77.3084
581.468,77.3193
581.811,77.3319
582.154,77.3123
582.496,77.2683
582.839,77.3137
583.181,77.3221
583.524,77.3219
583.866,77.3172
584.209,77.3242
584.551,77.3081
584.893,77.3116
585.235,77.3
585.578,77.3016
585.92,77.2907
586.262,77.2825
586.604,77.3025
586.946,77.3384
587.288,77.3715
587.63,77.46
587.972,77.4052
588.313,77.3994
588.655,77.4146
588.997,77.4201
589.339,77.4148
589.68,77.4194
590.022,77.408
590.363,77.4297
590.705,77.4579
591.046,77.4337
591.388,77.4267
591.729,77.4639
592.07,77.4728
592.412,77.4961
592.753,77.4921
593.094,77.4521
593.435,77.4607
593.776,77.4784
594.117,77.4851
594.458,77.4593
594.799,77.4595
595.14,77.5659
595.481,77.5433
595.822,77.5079
596.163,77.4784
596.504,77.4439
596.844,77.4849
597.185,77.4602
597.525,77.4756
597.866,77.4525
598.206,77.3754
598.547,77.4364
598.887,77.4639
599.228,77.4085
599.568,77.4409
599.908,77.4483
600.249,77.5082
600.589,77.4865
600.929,77.4576
601.269,77.5282
601.609,77.5017
601.949,77.4933
602.289,77.3927
602.629,77.3871
602.969,77.3526
603.308,77.388
603.648,77.4397
603.988,77.433
604.328,77.4306
604.667,77.4132
605.007,77.416
605.346,77.3675
605.686,77.4183
606.025,77.4432
606.365,77.4178
606.704,77.4614
607.043,77.4595
607.383,77.4483
607.722,77.4292
608.061,77.4227
608.4,77.416
608.739,77.4178
609.078,77.4218
609.417,77.3638
609.756,77.3789
610.095,77.3757
610.434,77.3729
610.773,77.4518
611.111,77.4157
611.45,77.374
611.789,77.3717
612.127,77.3694
612.466,77.3726
612.805,77.4155
613.143,77.4507
613.481,77.4751
613.82,77.4725
614.158,77.5033
614.496,77.5282
614.835,77.5231
615.173,77.5163
615.511,77.5075
615.849,77.5182
616.187,77.5049
616.525,77.4318
616.863,77.3999
617.201,77.3647
617.539,77.3279
617.877,77.3561
618.215,77.3328
618.552,77.3554
618.89,77.371
619.228,77.3808
619.565,77.3962
619.903,77.4064
620.24,77.4609
620.578,77.4809
620.915,77.45
621.252,77.4236
621.59,77.3934
621.927,77.391
622.264,77.4162
622.601,77.4395
622.938,77.4278
623.276,77.3994
623.613,77.4269
623.95,77.46
624.286,77.4183
624.623,77.4444
624.96,77.4413
625.297,77.4453
625.634,77.4241
625.97,77.4327
626.307,77.415
626.644,77.4416
626.98,77.4378
627.317,77.4015
627.653,77.3789
627.99,77.3461
628.326,77.3622
628.662,77.3773
628.999,77.3892
629.335,77.4465
629.671,77.4614
630.007,77.4886
630.343,77.5017
630.679,77.5212
631.015,77.527
631.351,77.4986
631.687,77.5133
632.023,77.5527
632.359,77.5468
632.694,77.5522
633.03,77.6076
633.366,77.6353
633.701,77.6516
634.037,77.6835
634.373,77.6442
634.708,77.6344
635.043,77.5589
635.379,77.555
635.714,77.6295
636.049,77.7022
636.385,77.6791
636.72,77.7241
637.055,77.7576
637.39,77.7525
637.725,77.7497
638.06,77.762
638.395,77.7718
638.73,77.7432
639.065,77.7665
639.4,77.7562
639.734,77.7602
640.069,77.7439
640.404,77.7404
640.738,77.7425
641.073,77.7513
641.407,77.7753
641.742,77.7327
642.076,77.755
642.411,77.6877
642.745,77.722
643.079,77.7543
643.414,77.704
643.748,77.6896
644.082,77.6465
644.416,77.5925
644.75,77.5478
645.084,77.5783
645.418,77.5352
645.752,77.5545
646.086,77.6249
646.419,77.6197
646.753,77.6477
647.087,77.6812
647.421,77.6794
647.754,77.6591
648.088,77.6412
648.421,77.6572
648.755,77.6225
649.088,77.6416
649.422,77.6509
649.755,77.6684
650.088,77.7241
650.421,77.7702
650.755,77.7632
651.088,77.7238
651.421,77.7243
651.754,77.7571
652.087,77.776
652.42,77.7099
652.753,77.7443
653.085,77.7599
653.418,77.7576
653.751,77.8312
654.084,77.8158
654.416,77.7872
654.749,77.7685
655.081,77.7255
655.414,77.6978
655.746,77.6957
656.079,77.7194
656.411,77.7355
656.743,77.7313
657.076,77.756
657.408,77.7481
657.74,77.7506
658.072,77.7196
658.404,77.7283
658.736,77.6987
659.068,77.6882
659.4,77.6544
659.732,77.6777
660.064,77.653
660.396,77.6915
660.727,77.6861
661.059,77.6379
661.391,77.6917
661.722,77.7024
662.054,77.6915
662.385,77.6805
662.717,77.5981
663.048,77.6472
663.379,77.6973
663.711,77.6854
664.042,77.6787
664.373,77.6479
664.704,77.6833
665.035,77.6598
665.366,77.644
665.697,77.6451
666.028,77.6111
666.359,77.6323
666.69,77.6824
667.021,77.6353
667.351,77.6412
667.682,77.596
668.013,77.5766
668.343,77.6051
668.674,77.6044
669.004,77.6249
669.335,77.6002
669.665,77.6244
669.996,77.6477
670.326,77.7313
670.656,77.7385
670.986,77.7429
671.317,77.7369
671.647,77.7574
671.977,77.7818
672.307,77.752
672.637,77.742
672.967,77.6838
673.297,77.7045
673.626,77.7248
673.956,77.7199
674.286,77.7315
674.615,77.7425
674.945,77.7499
675.275,77.7825
675.604,77.8093
675.934,77.8265
676.263,77.8529
676.592,77.9094
676.922,77.9092
677.251,77.912
677.58,77.8822
677.909,77.8445
678.238,77.851
678.568,77.8848
678.897,77.8831
679.226,77.8489
679.554,77.8298
679.883,77.8065
680.212,77.7895
680.541,77.7443
680.87,77.7744
681.198,77.7984
681.527,77.7702
681.856,77.7441
682.184,77.6984
682.513,77.7075
682.841,77.6691
683.169,77.7106
683.498,77.7732
683.826,77.8242
684.154,77.8175
684.482,77.7972
684.81,77.7774
685.139,77.8359
685.467,77.8237
685.795,77.8156
686.122,77.8794
686.45,77.8498
686.778,77.8375
687.106,77.8133
687.434,77.7923
687.761,77.8186
688.089,77.7867
688.417,77.7858
688.744,77.7832
689.072,77.7669
689.399,77.732
689.726,77.6859
690.054,77.6614
690.381,77.6521
690.708,77.6144
691.035,77.6118
691.363,77.5515
691.69,77.5375
692.017,77.5315
692.344,77.4949
692.671,77.4814
692.997,77.4963
693.324,77.4562
693.651,77.408
693.978,77.4351
694.304,77.4707
694.631,77.4327
694.958,77.426
695.284,77.422
695.611,77.4528
695.937,77.4271
696.263,77.4427
696.59,77.4041
696.916,77.3945
697.242,77.3463
697.568,77.3545
697.895,77.3528
698.221,77.3824
698.547,77.4248
698.873,77.4201
699.198,77.4507
699.524,77.4264
699.85,77.4597
700.176,77.4297
700.502,77.4171
700.827,77.4309
701.153,77.4341
701.478,77.4898
701.804,77.5017
702.129,77.4583
702.455,77.4369
702.78,77.4728
703.106,77.4497
703.431,77.4465
703.756,77.4106
704.081,77.392
704.406,77.374
704.731,77.4206
705.056,77.459
705.381,77.4791
705.706,77.4821
706.031,77.4581
706.356,77.5003
706.681,77.5387
707.005,77.5657
707.33,77.5345
707.655,77.4961
707.979,77.5291
708.304,77.5548
708.628,77.5517
708.952,77.5562
709.277,77.5212
709.601,77.5333
709.925,77.5238
710.25,77.5338
710.574,77.5242
710.898,77.544
711.222,77.5352
711.546,77.5683
711.87,77.568
712.194,77.4933
712.517,77.4684
712.841,77.4691
713.165,77.4881
713.489,77.4833
713.812,77.5098
714.136,77.5252
714.459,77.5485
714.783,77.5641
715.106,77.5303
715.43,77.5454
715.753,77.541
716.076,77.5159
716.399,77.4646
716.723,77.4292
717.046,77.4637
717.369,77.463
717.692,77.4541
718.015,77.3906
718.338,77.4849
718.661,77.4891
718.983,77.5266
719.306,77.5562
719.629,77.5298
719.951,77.5387
720.274,77.5885
720.597,77.6409
720.919,77.6903
721.242,77.6894
721.564,77.7252
721.886,77.7315
722.209,77.7108
722.531,77.7718
722.853,77.7727
723.175,77.7644
723.497,77.7762
723.819,77.7995
724.141,77.8189
724.463,77.8419
724.785,77.8815
725.107,77.8901
725.429,77.8321
725.75,77.8079
726.072,77.7613
726.394,77.823
726.715,77.8475
727.037,77.8857
727.358,77.8601
727.68,77.8328
728.001,77.8407
728.322,77.9097
728.643,77.8903
728.965,77.9141
729.286,77.8922
729.607,77.9318
729.928,77.9544
730.249,77.9188
730.57,77.9458
730.891,77.9623
731.212,78.0003
731.532,77.9979
731.853,77.9369
732.174,77.9167
732.494,77.8966
732.815,77.9337
733.136,77.9579
733.456,77.9651
733.776,77.9306
734.097,77.8743
734.417,77.8261
734.737,77.8927
735.058,77.9432
735.378,77.9863
735.698,77.9295
736.018,77.8894
736.338,77.8685
736.658,77.8782
736.978,77.8643
737.298,77.8815
737.617,77.9469
737.937,77.9886
738.257,78.0478
738.577,78.0198
738.896,78.0315
739.216,78.0012
739.535,77.9905
739.855,77.9856
740.174,78.0159
740.493,78.0156
740.812,78.0045
741.132,77.9728
741.451,77.9963
741.77,77.9749
742.089,77.9616
742.408,77.9537
742.727,77.9542
743.046,77.9497
743.365,77.9632
743.684,77.9416
744.002,77.9677
744.321,77.9793
744.64,77.98
744.958,77.98
745.277,77.9795
745.595,77.9628
745.914,77.9495
746.232,77.8775
746.55,77.8601
746.869,77.8249
747.187,77.9015
747.505,77.9036
747.823,77.9448
748.141,77.9423
748.459,77.9351
748.777,77.9346
749.095,77.9726
749.413,77.9982
749.731,78.0343
750.048,77.9884
750.366,77.9912
750.684,77.9595
751.001,77.8985
751.319,77.9313
751.636,77.8913
751.954,77.8764
752.271,77.8817
752.588,77.8601
752.906,77.8924
753.223,77.8834
753.54,77.9041
753.857,77.9488
754.174,77.9581
754.491,77.9807
754.808,78.0189
755.125,78.0434
755.442,78.0506
755.758,78.0534
756.075,78.0701
756.392,78.0599
756.708,78.0641
757.025,78.0403
757.342,78.0704
757.658,78.0869
757.974,78.0862
758.291,78.1151
758.607,78.1079
758.923,78.1333
759.239,78.1626
759.556,78.1468
759.872,78.1398
760.188,78.0662
760.504,78.0494
760.82,78.0485
761.135,78.0194
761.451,78.0124
761.767,78.0529
762.083,78.0864
762.398,78.072
762.714,78.0152
763.03,77.9549
763.345,77.9535
763.661,77.9639
763.976,77.97
764.291,77.9402
764.607,77.9572
764.922,77.939
765.237,77.9511
765.552,77.8717
765.867,77.8396
766.182,77.8529
766.497,77.8722
766.812,77.8242
767.127,77.8349
767.442,77.8745
767.756,77.8836
768.071,77.8789
768.386,77.9237
768.7,77.922
769.015,77.9106
769.329,77.8396
769.644,77.8168
769.958,77.8289
770.272,77.807
770.587,77.7669
770.901,77.7783
771.215,77.8135
771.529,77.8021
771.843,77.8179
772.157,77.8426
772.471,77.7928
772.785,77.8512
773.099,77.8638
773.412,77.837
773.726,77.855
774.04,77.8855
774.353,77.8678
774.667,77.8573
774.98,77.8717
775.294,77.8789
775.607,77.925
775.921,77.9237
776.234,77.9418
776.547,77.9965
776.86,77.966
777.173,77.9716
777.486,77.9691
777.799,77.9977
778.112,77.9593
778.425,77.9451
778.738,77.9616
779.051,77.9968
779.364,77.9528
779.676,77.9784
779.989,77.9472
780.302,77.9833
780.614,77.953
780.927,77.9448
781.239,77.9521
781.551,77.9239
781.864,77.9171
782.176,77.865
782.488,77.8375
782.8,77.7737
783.112,77.7506
783.424,77.7753
783.736,77.8016
784.048,77.8014
784.36,77.7418
784.672,77.6903
784.984,77.6761
785.295,77.6721
785.607,77.6658
785.918,77.6849
786.23,77.6309
786.541,77.6283
786.853,77.6221
787.164,77.5913
787.476,77.5438
787.787,77.5762
788.098,77.6263
788.409,77.5883
788.72,77.6167
789.031,77.6812
789.342,77.7245
789.653,77.7385
789.964,77.6915
790.275,77.6819
790.586,77.5971
790.896,77.6018
791.207,77.6435
791.518,77.6677
791.828,77.6039
792.139,77.6349
792.449,77.6123
792.759,77.6544
793.07,77.6605
793.38,77.667
793.69,77.667
794,77.6835
794.31,77.6784
794.62,77.7005
794.93,77.7285
795.24,77.7965
795.55,77.8005
795.86,77.8335
796.17,77.8244
796.48,77.8179
796.789,77.8519
797.099,77.84
797.408,77.8559
797.718,77.9264
798.027,77.8682
798.337,77.8694
798.646,77.8282
798.955,77.8019
799.264,77.8682
799.574,77.8964
799.883,77.8559
800.192,77.8345
800.501,77.8214
800.81,77.7739
801.119,77.7294
801.427,77.7012
801.736,77.6868
802.045,77.712
802.354,77.718
802.662,77.7553
802.971,77.7467
803.279,77.7418
803.588,77.7099
803.896,77.7061
804.204,77.7327
804.513,77.6637
804.821,77.6589
805.129,77.6442
805.437,77.6549
805.745,77.7036
806.053,77.6938
806.361,77.6964
806.669,77.6887
806.977,77.6807
807.284,77.7057
807.592,77.7255
807.9,77.7082
808.207,77.694
808.515,77.7229
808.822,77.6882
809.13,77.6754
809.437,77.7364
809.745,77.7744
810.052,77.7057
810.359,77.6612
810.666,77.5981
810.973,77.5529
811.28,77.4961
811.587,77.4656
811.894,77.5245
812.201,77.5412
812.508,77.5135
812.815,77.5201
813.121,77.5396
813.428,77.5592
813.734,77.5815
814.041,77.5589
814.347,77.5801
814.654,77.5843
814.96,77.5955
815.267,77.5992
815.573,77.5538
815.879,77.5538
816.185,77.5801
816.491,77.4935
816.797,77.5049
817.103,77.5762
817.409,77.579
817.715,77.5343
818.021,77.5161
818.326,77.5266
818.632,77.5294
818.938,77.5403
819.243,77.5361
819.549,77.5501
819.854,77.5052
820.16,77.5296
820.465,77.568
820.77,77.5431
821.076,77.538
821.381,77.4916
821.686,77.4826
821.991,77.5014
822.296,77.5047
822.601,77.5203
822.906,77.5592
823.211,77.5475
823.515,77.5711
823.82,77.5829
824.125,77.5794
824.429,77.5636
824.734,77.5548
825.038,77.582
825.343,77.6037
825.647,77.5953
825.951,77.551
826.256,77.5345
826.56,77.5035
826.864,77.5762
827.168,77.6125
827.472,77.6339
827.776,77.7064
828.08,77.7243
828.384,77.7092
828.688,77.6845
828.992,77.687
829.295,77.6635
829.599,77.62
829.902,77.5638
830.206,77.5643
830.509,77.517
830.813,77.5673
831.116,77.5645
831.419,77.5985
831.723,77.5683
832.026,77.5436
832.329,77.5585
832.632,77.5881
832.935,77.5587
833.238,77.5208
833.541,77.5464
833.844,77.5168
834.147,77.5289
834.449,77.5545
834.752,77.5308
835.054,77.4975
835.357,77.5152
835.66,77.5266
835.962,77.5229
836.264,77.5594
836.567,77.5485
836.869,77.5175
837.171,77.5394
837.473,77.5366
837.775,77.5352
838.077,77.4926
838.379,77.4707
838.681,77.4451
838.983,77.3924
839.285,77.4278
839.587,77.3573
839.888,77.3531
840.19,77.3468
840.492,77.2967
840.793,77.2723
841.094,77.2471
841.396,77.2215
841.697,77.2315
841.999,77.2529
842.3,77.2264
842.601,77.2345
842.902,77.2951
843.203,77.2888
843.504,77.35
843.805,77.3568
844.106,77.398
844.407,77.4483
844.707,77.4821
845.008,77.432
845.309,77.3959
845.609,77.3596
845.91,77.3587
846.21,77.395
846.511,77.4122
846.811,77.4299
847.111,77.3973
847.412,77.4749
847.712,77.5156
848.012,77.4409
848.312,77.4837
848.612,77.4972
848.912,77.5229
849.212,77.4663
849.512,77.4122
849.811,77.4437
850.111,77.4378
850.411,77.3903
850.71,77.3598
851.01,77.3792
851.309,77.4213
851.609,77.4295
851.908,77.4514
852.208,77.4334
852.507,78.6428
852.806,72.5574
853.105,78.8301
853.404,78.1747
853.703,74.5235
854.002,80.7961
854.301,79.6258
854.6,79.3918
854.899,69.2339
855.197,78.5024
855.496,78.4556
855.795,73.8213
856.093,75.6937
856.392,77.6598
856.69,72.0893
856.988,89.5965
857.287,79.9535
857.585,84.1665
857.883,81.5919
858.181,75.7405
858.479,76.63
858.777,74.149
859.075,77.8002
859.373,76.4895
859.671,77.2385
859.969,72.7447
860.267,73.6341
860.564,72.6979
860.862,81.8728
861.16,79.1577
861.457,73.7745
861.754,69.8892
862.052,73.4468
862.349,79.2982
862.646,79.8599
862.944,78.2683
863.241,77.0981
863.538,80.0003
863.835,72.2297
864.132,82.0132
864.429,76.63
864.726,77.2853
865.022,75.6001
865.319,77.613
865.616,81.077
865.912,81.6387
866.209,78.8301
866.505,75.6937
866.802,71.5744
867.098,82.4813
867.394,86.1793
867.691,80.9365
867.987,71.6212
868.283,79.9067
868.579,73.4
868.875,73.3064
869.171,87.5368
869.467,73.3532
869.763,72.7915
870.059,75.5065
870.354,68.9998
870.65,75.3661
870.946,69.936
871.241,78.1747
871.537,74.0086
871.832,80.2812
872.127,65.0677
872.423,80.4684
872.718,90.1582
873.013,72.0893
873.308,83.5579
873.603,75.0384
873.898,83.1835
874.193,83.1366
874.488,82.809
874.783,76.1618
875.078,73.6341
875.372,78.3619
875.667,77.6598
875.962,80.3748
876.256,78.2683
876.551,82.0132
876.845,76.115
877.139,94.3712
877.434,82.4345
877.728,66.7997
878.022,82.4345
878.316,78.596
878.61,78.7832
878.904,75.2724
879.198,77.7066
879.492,80.0471
879.786,79.0641
880.08,76.0682
880.373,77.1449
880.667,79.2982
880.961,82.1068
881.254,77.2385
881.548,75.5533
881.841,69.702
EndSpectrumFile,CALIBRATION
EndCalFile
