CalFile
Version,1.000000
Unique File ID,20111207-0014320750-TESTBOX2-7E963C-00018940
Requires Spectrometer iString,fffdecdedadada,fffdecdeeidadcdhdfdj
Calibration Wavelength [nm],780.000000
Calibration Integration Time [ms],50.000000
Calibration Spectra To Average,50
Calibration Boxcar Width,100
Substance,paper-distance
Calibration Points Wavelength [nm],0,1,10
Calibration Points Intensity [counts],0,468.91,3701.41
Calibration Points Intensity (raw) [counts],1107.09,1576,4808.5
Calibration Points Baseline [counts],1107.09
Calibration Type,2
Calibration Parameters,-0.131013,0.00273193
Calibration Rsquare,0.999340
Conc. Threshold Low Warning [ppm],0.000000
Conc. Threshold High Warning [ppm],10.000000
Conc. Threshold Low Error [ppm],0.000000
Conc. Threshold High Error [ppm],0.000000
SpectrumFile,CALIBRATION
Version,1.000000
Location,
Customer,
SampleInfo,
GPSData,51.118491,-114.185425,1143.658447,1107,71211
SystemTime,2011,12,7,0,13,15,218
Pipe km,0.000000
Pre-Dilution Factor,1.000000
Freeform Info,
Concentration,0.000000
CalibrationName,paper-distance
Unique Calibration File ID,
CalibrationWavelength,780.000000
CalibrationType,2,-0.131013,0.002732
CalibrationRSquared,0.999340
CalibrationConcentrations [ppm],3,0.000000,1.000000,10.000000
CalibrationCounts,3,0.000000,468.909715,3701.410325
CalibrationWarnLow,0.000000
CalibrationWarnHigh,10.000000
CalibrationErrorLow,0.000000
CalibrationErrorHigh,0.000000
Spectrometer Name,USB4000
Spectrometer Serial,USB4H02759
IntegrationTime [ms],0.000000
AveragedSpectra,-858993460
BoxcarWidth,-858993460
WavelengthRange [nm],346.775360,1043.690197
IntensityRange [counts],-134.587630,1128.796548
WavelengthCount,3648
Wavelength [nm],Intensity [counts]
346.775,-128.485
346.991,-128.485
347.206,-128.485
347.421,-130.819
347.637,-134.588
347.852,68.6528
348.067,44.8554
348.282,61.2801
348.498,40.227
348.713,66.3591
348.928,82.9886
349.143,79.0565
349.358,31.134
349.574,48.7875
349.789,25.8502
350.004,108.875
350.219,45.3469
350.434,47.6816
350.649,65.417
350.864,43.9133
351.079,71.5199
351.295,81.4321
351.51,25.7274
351.725,33.3458
351.94,5.32959
352.155,44.8144
352.37,66.6867
352.585,50.6307
352.8,104.656
353.015,31.7484
353.23,99.2494
353.445,37.196
353.66,53.4569
353.875,71.6838
354.09,84.5041
354.305,37.5646
354.52,58.331
354.735,33.0181
354.949,77.2133
355.164,103.96
355.379,35.3528
355.594,60.379
355.809,84.7908
356.024,76.3532
356.239,65.2532
356.453,92.0816
356.668,63.6967
356.883,68.6118
357.098,84.9137
357.313,57.5118
357.527,71.0284
357.742,49.238
357.957,34.8613
358.172,60.0923
358.386,62.2631
358.601,58.6177
358.816,91.0576
359.03,31.9941
359.245,65.8266
359.46,97.8978
359.674,48.1731
359.889,13.9311
360.104,81.7188
360.318,70.8236
360.533,61.7716
360.748,47.313
360.962,61.3211
361.177,43.5857
361.391,58.4129
361.606,55.2181
361.82,63.0004
362.035,58.0034
362.25,42.9713
362.464,46.3709
362.679,125.177
362.893,74.5509
363.108,72.0934
363.322,88.9277
363.536,52.4738
363.751,50.8764
363.965,59.0683
364.18,64.1473
364.394,75.1244
364.609,39.6945
364.823,66.9325
365.037,82.7428
365.252,57.2251
365.466,44.2
365.68,54.2351
365.895,50.5078
366.109,62.1812
366.323,37.8104
366.538,45.3879
366.752,39.3668
366.966,50.5487
367.181,51.9004
367.395,30.7654
367.609,32.5266
367.823,109.694
368.038,58.372
368.252,58.2799
368.466,59.1596
368.68,60.1897
368.894,61.0566
369.109,61.8222
369.323,62.9207
369.537,62.7854
369.751,62.8152
369.965,62.9048
370.179,62.9963
370.393,63.0452
370.607,63.0061
370.822,63.0683
371.036,63.3209
371.25,63.2883
371.464,63.4992
371.678,63.3566
371.892,63.4725
372.106,63.4298
372.32,63.6898
372.534,63.7823
372.748,63.9618
372.962,63.983
373.176,64.1691
373.39,64.4511
373.604,64.758
373.818,64.9391
374.031,64.8185
374.245,64.9131
374.459,64.7914
374.673,64.8629
374.887,64.7356
375.101,64.9098
375.315,65.0259
375.529,65.0651
375.742,64.9695
375.956,65.0188
376.17,65.0129
376.384,65.0724
376.598,64.8927
376.811,64.6465
377.025,64.9679
377.239,65.149
377.453,65.2434
377.666,65.3583
377.88,65.2067
378.094,65.5804
378.307,65.6829
378.521,65.7879
378.735,65.547
378.948,65.6279
379.162,65.6234
379.376,65.7347
379.589,66.1229
379.803,66.0742
380.016,65.9385
380.23,66.1761
380.444,66.2115
380.657,66.3603
380.871,66.4715
381.084,66.3527
381.298,66.1932
381.511,66.2615
381.725,66.4622
381.938,66.6215
382.152,66.6258
382.365,66.6179
382.579,66.5738
382.792,66.6953
383.006,66.7073
383.219,66.8204
383.433,66.8803
383.646,67.0103
383.859,67.0334
384.073,67.1477
384.286,66.7087
384.5,66.6558
384.713,66.6407
384.926,66.5282
385.14,66.8498
385.353,66.8885
385.566,66.9417
385.779,66.908
385.993,66.8661
386.206,67.0764
386.419,66.9938
386.633,66.7546
386.846,67.0613
387.059,67.2616
387.272,67.2685
387.485,67.5322
387.699,67.4295
387.912,67.6351
388.125,67.8136
388.338,68.2597
388.551,68.4523
388.764,68.5156
388.978,68.7039
389.191,68.7555
389.404,68.6887
389.617,68.5931
389.83,68.4358
390.043,68.5503
390.256,68.3412
390.469,68.4559
390.682,68.3392
390.895,68.4458
391.108,68.2589
391.321,68.1996
391.534,67.836
391.747,67.8185
391.96,67.3333
392.173,67.444
392.386,67.9186
392.599,68.0423
392.812,68.4215
393.025,68.4559
393.238,68.4458
393.451,68.3488
393.663,68.1046
393.876,68.4209
394.089,68.1918
394.302,68.3771
394.515,68.4182
394.728,68.3286
394.941,68.3769
395.153,68.156
395.366,68.0431
395.579,68.1191
395.792,67.8821
396.004,68.0535
396.217,67.9491
396.43,68.0686
396.643,68.3712
396.855,68.1723
397.068,68.351
397.281,68.4374
397.493,68.4578
397.706,68.3058
397.919,68.3017
398.131,68.6041
398.344,68.5688
398.557,68.4853
398.769,68.0162
398.982,68.2112
399.194,68.1389
399.407,68.3883
399.619,68.4508
399.832,68.5216
400.045,68.7147
400.257,69.2935
400.47,69.4451
400.682,69.7768
400.895,69.9912
401.107,70.1396
401.319,70.1864
401.532,70.0008
401.744,70.0731
401.957,70.2033
402.169,69.8642
402.382,69.9594
402.594,69.9388
402.806,70.2516
403.019,70.4524
403.231,70.3113
403.444,70.2455
403.656,70.2881
403.868,70.5422
404.081,70.8383
404.293,71.123
404.505,70.9944
404.717,70.9973
404.93,71.2797
405.142,71.1006
405.354,71.3443
405.566,71.6074
405.779,71.6671
405.991,71.6942
406.203,71.7865
406.415,71.7496
406.627,71.7099
406.84,71.6978
407.052,72.3344
407.264,72.1421
407.476,72.1794
407.688,72.5692
407.9,72.6538
408.112,72.8455
408.324,73.2891
408.537,73.3843
408.749,73.8149
408.961,74.0649
409.173,74.3606
409.385,74.3696
409.597,74.1988
409.809,74.1699
410.021,74.1739
410.233,74.3078
410.445,74.2151
410.657,74.7647
410.869,74.8676
411.081,74.8843
411.292,75.1089
411.504,75.2159
411.716,75.5501
411.928,75.8462
412.14,75.9328
412.352,76.0664
412.564,76.2207
412.776,76.2119
412.988,76.4041
413.199,76.207
413.411,76.1757
413.623,76.1844
413.835,76.1958
414.047,76.4575
414.258,76.7951
414.47,76.9757
414.682,76.8367
414.894,77.0158
415.105,76.7848
415.317,76.8057
415.529,76.7269
415.74,76.6939
415.952,76.8057
416.164,76.7269
416.375,76.7821
416.587,76.8553
416.799,77.0984
417.01,77.2335
417.222,77.3894
417.433,77.76
417.645,77.7075
417.857,77.813
418.068,77.89
418.28,77.9991
418.491,78.0724
418.703,78.3718
418.914,78.6974
419.126,79.1374
419.337,79.4494
419.549,79.4011
419.76,79.3403
419.972,79.3835
420.183,79.5415
420.394,79.495
420.606,79.7238
420.817,79.3868
421.029,79.3597
421.24,79.3876
421.451,79.6171
421.663,79.9431
421.874,80.2209
422.085,80.2013
422.297,80.0163
422.508,80.2859
422.719,80.8568
422.931,80.8758
423.142,80.9373
423.353,81.262
423.565,81.4627
423.776,81.536
423.987,82.1076
424.198,82.3797
424.409,82.2533
424.621,82.4082
424.832,82.5325
425.043,82.794
425.254,83.1194
425.465,83.1848
425.676,83.5353
425.888,83.7701
426.099,83.834
426.31,83.909
426.521,84.0474
426.732,84.2035
426.943,84.5157
427.154,84.7376
427.365,84.7466
427.576,84.9728
427.787,84.855
427.998,84.9603
428.209,85.1482
428.42,85.4763
428.631,85.7644
428.842,85.8313
429.053,85.8199
429.264,86.2604
429.475,86.3157
429.686,86.4854
429.897,86.7552
430.108,86.6492
430.319,87.2626
430.529,87.35
430.74,87.4085
430.951,87.5347
431.162,87.638
431.373,87.7185
431.584,88.0486
431.794,88.4798
432.005,88.5319
432.216,88.88
432.427,89.0177
432.637,89.3609
432.848,89.9802
433.059,89.9592
433.27,89.9323
433.48,90.3032
433.691,90.5797
433.902,91.1364
434.112,91.2897
434.323,91.5754
434.534,91.9833
434.744,92.2173
434.955,92.1066
435.166,92.1197
435.376,92.073
435.587,92.4981
435.797,92.7218
436.008,92.8029
436.218,93.3817
436.429,93.7277
436.64,94.1034
436.85,94.132
437.061,94.3302
437.271,94.9287
437.482,95.1417
437.692,95.667
437.902,95.8358
438.113,96.0342
438.323,96.3124
438.534,96.1999
438.744,96.2339
438.955,96.6354
439.165,96.8224
439.375,96.8626
439.586,96.6429
439.796,96.8573
440.006,96.7882
440.217,97.2349
440.427,97.4468
440.637,97.4725
440.848,97.4641
441.058,97.7835
441.268,98.2041
441.479,98.2411
441.689,98.6495
441.899,98.9366
442.109,98.9807
442.319,99.3358
442.53,99.4227
442.74,99.2772
442.95,99.7833
443.16,99.8532
443.37,100.317
443.58,100.311
443.791,100.919
444.001,101.219
444.211,101.395
444.421,101.785
444.631,102.409
444.841,102.841
445.051,103.07
445.261,102.997
445.471,104.54
445.681,105.029
445.891,105.466
446.101,105.849
446.311,106.101
446.521,106.154
446.731,106.292
446.941,106.767
447.151,107.392
447.361,107.447
447.571,107.557
447.781,107.981
447.991,108.073
448.201,108.465
448.41,109.146
448.62,109.405
448.83,109.728
449.04,109.871
449.25,110.259
449.46,110.327
449.669,110.453
449.879,110.656
450.089,110.713
450.299,111.309
450.508,111.354
450.718,111.588
450.928,111.602
451.138,111.782
451.347,112.207
451.557,112.523
451.767,112.883
451.976,113.296
452.186,113.836
452.396,114.024
452.605,114.172
452.815,114.667
453.025,114.749
453.234,115.156
453.444,115.326
453.653,115.578
453.863,115.629
454.072,115.786
454.282,116.108
454.491,116.278
454.701,116.642
454.911,116.939
455.12,117.299
455.329,117.564
455.539,118.182
455.748,118.509
455.958,118.65
456.167,119.114
456.377,119.454
456.586,119.541
456.795,119.646
457.005,120.102
457.214,120.684
457.424,120.999
457.633,121.351
457.842,121.758
458.052,122.143
458.261,122.413
458.47,122.793
458.679,123.115
458.889,123.378
459.098,123.761
459.307,124.059
459.517,124.343
459.726,124.54
459.935,125.064
460.144,125.249
460.353,125.514
460.563,125.978
460.772,126.297
460.981,126.717
461.19,127.048
461.399,127.205
461.608,127.572
461.817,128.307
462.026,128.803
462.236,129.224
462.445,129.554
462.654,130.148
462.863,130.563
463.072,131.151
463.281,131.606
463.49,131.91
463.699,132.502
463.908,132.852
464.117,132.945
464.326,133.566
464.535,134.3
464.744,134.848
464.952,134.867
465.161,135.04
465.37,135.484
465.579,135.637
465.788,135.79
465.997,136.382
466.206,136.689
466.415,137.28
466.623,137.864
466.832,138.132
467.041,138.756
467.25,139.215
467.459,139.594
467.667,140.109
467.876,140.692
468.085,141.268
468.294,141.63
468.502,142.103
468.711,142.933
468.92,143.432
469.128,144.137
469.337,144.491
469.546,145.065
469.754,145.555
469.963,146.159
470.172,146.967
470.38,147.481
470.589,147.759
470.798,148.276
471.006,148.681
471.215,149.358
471.423,149.853
471.632,150.232
471.84,150.691
472.049,151.329
472.257,151.941
472.466,152.314
472.674,152.804
472.883,153.506
473.091,153.726
473.3,154.36
473.508,155.045
473.716,155.65
473.925,156.044
474.133,156.694
474.342,157.181
474.55,157.884
474.758,158.608
474.967,158.779
475.175,159.691
475.383,160.601
475.592,161.126
475.8,161.514
476.008,161.894
476.217,162.515
476.425,163.152
476.633,163.488
476.841,163.846
477.05,164.475
477.258,165.396
477.466,165.972
477.674,166.199
477.882,166.847
478.091,167.591
478.299,168.12
478.507,168.496
478.715,169.374
478.923,169.835
479.131,170.695
479.339,171.036
479.547,171.828
479.755,172.4
479.963,173.105
480.171,173.804
480.38,174.391
480.588,175.308
480.796,176.034
481.004,176.158
481.212,176.699
481.42,177.49
481.627,178.592
481.835,179.378
482.043,180.259
482.251,180.773
482.459,181.412
482.667,181.981
482.875,182.661
483.083,183.693
483.291,184.294
483.499,185.066
483.706,185.61
483.914,186.182
484.122,186.824
484.33,187.412
484.538,188.215
484.745,188.889
484.953,189.213
485.161,189.683
485.369,190.385
485.576,191.569
485.784,191.941
485.992,192.798
486.199,193.544
486.407,194.103
486.615,194.648
486.822,195.041
487.03,195.658
487.238,196.39
487.445,195.515
487.653,196.097
487.861,196.841
488.068,197.25
488.276,197.845
488.483,198.603
488.691,199.293
488.898,199.978
489.106,200.335
489.313,201.131
489.521,201.958
489.728,202.311
489.936,203.032
490.143,203.683
490.351,204.047
490.558,204.806
490.766,205.341
490.973,206.095
491.18,206.464
491.388,206.999
491.595,207.861
491.802,208.748
492.01,209.389
492.217,209.663
492.424,210.595
492.632,211.053
492.839,212.075
493.046,212.625
493.254,213.192
493.461,213.653
493.668,214.389
493.875,215.171
494.083,215.297
494.29,216.002
494.497,216.857
494.704,217.24
494.911,217.848
495.119,218.298
495.326,219.145
495.533,219.864
495.74,220.524
495.947,221.09
496.154,221.627
496.361,221.976
496.568,222.246
496.775,222.71
496.982,223.21
497.19,223.908
497.397,224.445
497.604,225.053
497.811,225.738
498.018,226.431
498.225,227.017
498.432,227.565
498.638,228.139
498.845,229.053
499.052,229.399
499.259,230.035
499.466,230.624
499.673,230.776
499.88,231.598
500.087,232.025
500.294,232.59
500.501,233.073
500.707,233.583
500.914,234.004
501.121,234.602
501.328,234.923
501.535,235.706
501.741,236.486
501.948,237.038
502.155,237.799
502.362,238.021
502.568,238.614
502.775,239.195
502.982,239.703
503.188,240.174
503.395,240.543
503.602,240.66
503.808,240.861
504.015,241.144
504.222,241.313
504.428,241.66
504.635,242.588
504.841,242.704
505.048,243.201
505.254,243.782
505.461,244.253
505.668,244.455
505.874,245.131
506.081,245.76
506.287,245.729
506.494,245.876
506.7,246.454
506.907,247.235
507.113,247.571
507.319,248.187
507.526,248.946
507.732,249.44
507.939,249.804
508.145,249.922
508.351,250.057
508.558,250.27
508.764,250.448
508.97,250.648
509.177,250.91
509.383,251.235
509.589,251.364
509.796,251.366
510.002,251.953
510.208,252.159
510.414,252.135
510.621,252.391
510.827,252.5
511.033,252.949
511.239,253.286
511.445,253.489
511.652,253.72
511.858,254.028
512.064,254.265
512.27,254.655
512.476,254.737
512.682,255.169
512.888,255.457
513.095,255.621
513.301,255.841
513.507,256.011
513.713,256.107
513.919,256.42
514.125,256.499
514.331,257.033
514.537,257.232
514.743,257.581
514.949,257.872
515.155,258.164
515.361,258.261
515.567,258.506
515.773,258.531
515.978,258.754
516.184,258.902
516.39,258.692
516.596,258.913
516.802,258.912
517.008,258.885
517.214,258.989
517.419,259.392
517.625,259.605
517.831,259.8
518.037,259.762
518.243,260.177
518.448,260.605
518.654,260.801
518.86,260.803
519.066,261.282
519.271,261.497
519.477,261.706
519.683,261.858
519.888,262.184
520.094,262.361
520.3,262.115
520.505,262.609
520.711,262.805
520.917,263.325
521.122,263.589
521.328,263.661
521.533,263.734
521.739,264.213
521.944,264.392
522.15,264.426
522.356,264.575
522.561,264.975
522.767,264.979
522.972,264.988
523.177,265.099
523.383,265.581
523.588,265.732
523.794,265.745
523.999,265.649
524.205,266.07
524.41,266.186
524.615,265.983
524.821,266.099
525.026,266.155
525.232,266.156
525.437,266.425
525.642,266.604
525.847,266.928
526.053,266.978
526.258,267.122
526.463,267.261
526.669,267.516
526.874,267.307
527.079,266.84
527.284,267.024
527.49,266.999
527.695,266.764
527.9,266.748
528.105,266.571
528.31,266.572
528.515,266.552
528.721,266.556
528.926,266.366
529.131,266.158
529.336,266.208
529.541,266.422
529.746,266.417
529.951,266.358
530.156,266.424
530.361,266.167
530.566,266.175
530.771,266.102
530.976,266.018
531.181,266.092
531.386,265.96
531.591,265.73
531.796,265.774
532.001,265.71
532.206,265.4
532.411,265.365
532.616,265.443
532.821,265.276
533.025,264.884
533.23,264.566
533.435,264.412
533.64,264.266
533.845,263.969
534.05,263.968
534.254,263.627
534.459,263.48
534.664,263.078
534.869,263.135
535.073,262.892
535.278,262.569
535.483,262.424
535.688,262.206
535.892,262.009
536.097,261.926
536.302,261.546
536.506,261.609
536.711,261.487
536.916,261.148
537.12,260.964
537.325,261.063
537.529,260.877
537.734,260.82
537.938,261.602
538.143,261.775
538.348,261.629
538.552,261.211
538.757,261.138
538.961,261.297
539.166,261.174
539.37,261.06
539.575,260.679
539.779,260.358
539.983,260.266
540.188,259.836
540.392,259.569
540.597,259.52
540.801,259.275
541.005,259.194
541.21,258.547
541.414,258.592
541.618,258.437
541.823,258.329
542.027,258.03
542.231,257.897
542.436,257.426
542.64,257.368
542.844,256.796
543.048,256.285
543.253,255.971
543.457,255.498
543.661,255.217
543.865,255.003
544.069,254.543
544.274,254.28
544.478,253.944
544.682,253.94
544.886,253.707
545.09,253.83
545.294,253.555
545.498,253.638
545.702,253.199
545.907,252.519
546.111,252.27
546.315,252.065
546.519,251.783
546.723,251.285
546.927,251.256
547.131,251.045
547.335,250.549
547.539,250.626
547.743,250.505
547.947,250.415
548.15,249.923
548.354,249.61
548.558,249.298
548.762,248.862
548.966,248.315
549.17,248.033
549.374,247.723
549.578,247.404
549.781,247.314
549.985,247.105
550.189,247.093
550.393,247.09
550.597,246.77
550.8,246.354
551.004,246.243
551.208,246.111
551.412,245.933
551.615,245.789
551.819,245.662
552.023,245.391
552.226,244.984
552.43,244.585
552.634,244.077
552.837,243.825
553.041,243.268
553.244,242.929
553.448,242.827
553.652,242.577
553.855,242.297
554.059,242.249
554.262,242.014
554.466,241.834
554.669,241.652
554.873,241.539
555.076,241.397
555.28,241.075
555.483,240.765
555.687,240.361
555.89,239.934
556.094,239.366
556.297,238.94
556.5,238.578
556.704,238.176
556.907,237.985
557.111,237.717
557.314,237.309
557.517,237.227
557.721,237.004
557.924,236.847
558.127,236.404
558.33,236.064
558.534,235.807
558.737,235.486
558.94,234.94
559.144,234.73
559.347,234.486
559.55,234.074
559.753,233.84
559.956,233.469
560.159,233.24
560.363,233.396
560.566,233.159
560.769,232.975
560.972,232.605
561.175,232.399
561.378,232.462
561.581,231.871
561.784,231.654
561.987,231.182
562.19,230.653
562.394,230.355
562.597,230.577
562.8,230.151
563.003,229.896
563.205,229.613
563.408,229.612
563.611,229.505
563.814,229.591
564.017,229.686
564.22,229.254
564.423,228.734
564.626,228.583
564.829,228.45
565.032,228.59
565.235,228.074
565.437,227.945
565.64,227.593
565.843,227.694
566.046,227.625
566.249,227.57
566.451,227.099
566.654,227.198
566.857,227.192
567.06,227.09
567.262,227.159
567.465,227.458
567.668,227.41
567.87,227.21
568.073,227.251
568.276,227.075
568.478,227.089
568.681,227.239
568.884,227.205
569.086,227.48
569.289,227.519
569.491,227.83
569.694,227.849
569.896,228.074
570.099,228.463
570.301,228.369
570.504,228.341
570.706,228.283
570.909,228.337
571.111,228.441
571.314,228.916
571.516,229.033
571.719,229.287
571.921,229.354
572.124,229.568
572.326,229.667
572.528,229.92
572.731,230.154
572.933,230.399
573.135,230.953
573.338,230.988
573.54,230.984
573.742,231.114
573.945,231.713
574.147,232.005
574.349,232.242
574.551,232.406
574.754,232.729
574.956,233.083
575.158,233.139
575.36,233.78
575.562,234.262
575.765,234.305
575.967,234.593
576.169,235.306
576.371,235.559
576.573,236.005
576.775,236.015
576.977,236.179
577.179,236.521
577.382,236.595
577.584,236.905
577.786,237.28
577.988,237.862
578.19,237.931
578.392,238.441
578.594,238.954
578.796,238.838
578.998,238.996
579.2,239.246
579.401,239.742
579.603,240.155
579.805,240.375
580.007,240.553
580.209,240.471
580.411,241.4
580.613,242.115
580.815,242.559
581.016,242.935
581.218,243.47
581.42,243.765
581.622,244.271
581.824,245.002
582.025,245.936
582.227,246.44
582.429,246.632
582.631,246.928
582.832,247.457
583.034,248.018
583.236,248.547
583.437,248.98
583.639,249.622
583.841,250.093
584.042,250.84
584.244,251.326
584.446,252.064
584.647,252.535
584.849,252.914
585.05,253.209
585.252,253.649
585.453,254.001
585.655,254.664
585.856,254.956
586.058,255.403
586.259,255.954
586.461,256.483
586.662,257.149
586.864,257.817
587.065,258.547
587.267,259.031
587.468,259.796
587.67,260.58
587.871,261.024
588.072,261.461
588.274,262.094
588.475,262.768
588.676,263.048
588.878,263.578
589.079,264.378
589.28,264.945
589.481,265.446
589.683,265.926
589.884,266.646
590.085,267.467
590.286,268.25
590.488,268.759
590.689,269.28
590.89,269.753
591.091,270.025
591.292,270.791
591.494,271.427
591.695,271.907
591.896,272.563
592.097,273.178
592.298,273.62
592.499,274.163
592.7,274.901
592.901,275.597
593.102,276.559
593.303,277.514
593.504,278.12
593.705,278.972
593.906,279.613
594.107,280.359
594.308,280.792
594.509,281.251
594.71,281.751
594.911,282.443
595.112,282.988
595.313,283.61
595.514,284.26
595.715,284.787
595.915,285.424
596.116,285.849
596.317,286.827
596.518,287.582
596.719,288.307
596.92,289.141
597.12,289.868
597.321,290.6
597.522,291.429
597.723,292.057
597.923,292.788
598.124,293.215
598.325,294.123
598.525,294.264
598.726,295.032
598.927,295.769
599.127,296.359
599.328,297.156
599.529,297.923
599.729,298.455
599.93,299.094
600.13,299.558
600.331,299.928
600.531,300.581
600.732,301.084
600.933,301.369
601.133,301.976
601.334,302.558
601.534,302.929
601.734,303.3
601.935,303.77
602.135,304.258
602.336,304.627
602.536,305.139
602.737,305.746
602.937,306.306
603.137,306.226
603.338,306.437
603.538,306.803
603.738,307.427
603.939,307.981
604.139,308.342
604.339,308.693
604.54,308.948
604.74,309.647
604.94,310.172
605.14,310.575
605.341,310.879
605.541,311.385
605.741,311.735
605.941,311.876
606.141,312.559
606.342,312.883
606.542,313.409
606.742,313.663
606.942,314.215
607.142,314.626
607.342,315.097
607.542,315.313
607.742,315.508
607.942,315.371
608.142,315.657
608.343,316.21
608.543,316.636
608.743,317.016
608.943,317.259
609.143,317.597
609.342,318.036
609.542,318.265
609.742,318.624
609.942,318.832
610.142,318.98
610.342,319.281
610.542,319.302
610.742,319.855
610.942,320.106
611.142,320.553
611.341,320.844
611.541,320.892
611.741,320.704
611.941,320.921
612.141,321.044
612.34,321.354
612.54,321.526
612.74,322.063
612.94,322.128
613.139,322.376
613.339,322.28
613.539,322.429
613.738,322.572
613.938,322.886
614.138,323.239
614.337,323.191
614.537,323.447
614.736,323.526
614.936,324.026
615.136,323.987
615.335,323.989
615.535,324.217
615.734,324.364
615.934,324.587
616.133,324.67
616.333,325.03
616.532,325.096
616.732,325.577
616.931,325.699
617.131,326.335
617.33,326.793
617.529,327.144
617.729,327.301
617.928,327.521
618.128,327.644
618.327,327.492
618.526,327.529
618.726,327.755
618.925,327.928
619.124,327.953
619.324,328.136
619.523,328.458
619.722,328.699
619.921,328.939
620.121,328.858
620.32,329.348
620.519,329.657
620.718,329.438
620.917,329.362
621.117,329.474
621.316,329.686
621.515,329.772
621.714,330.09
621.913,330.047
622.112,330.258
622.311,330.058
622.51,330.299
622.709,330.572
622.909,330.957
623.108,331.378
623.307,331.143
623.506,331.52
623.705,331.78
623.904,331.658
624.103,331.716
624.301,331.744
624.5,332.002
624.699,332.241
624.898,332.305
625.097,332.661
625.296,332.996
625.495,333.218
625.694,333.248
625.893,333.595
626.091,333.833
626.29,334.39
626.489,334.209
626.688,334.412
626.887,334.414
627.085,334.561
627.284,334.234
627.483,334.416
627.682,334.345
627.88,333.853
628.079,334.062
628.278,334.459
628.476,334.429
628.675,334.493
628.874,334.68
629.072,334.621
629.271,334.78
629.47,334.97
629.668,335.159
629.867,335.332
630.065,335.198
630.264,335.27
630.462,335.348
630.661,335.497
630.859,335.862
631.058,336.321
631.256,336.772
631.455,337.429
631.653,337.759
631.852,338.002
632.05,337.819
632.249,337.865
632.447,338.253
632.645,338.573
632.844,338.687
633.042,338.923
633.24,339.012
633.439,339.198
633.637,339.464
633.835,339.61
634.034,339.939
634.232,339.948
634.43,340.492
634.628,340.924
634.827,341.205
635.025,341.509
635.223,341.918
635.421,341.894
635.62,341.896
635.818,342.133
636.016,342.264
636.214,342.519
636.412,342.403
636.61,342.552
636.808,342.761
637.006,342.797
637.205,343.014
637.403,343.547
637.601,343.363
637.799,343.54
637.997,343.839
638.195,344.079
638.393,343.784
638.591,344.251
638.789,344.439
638.987,344.733
639.184,344.894
639.382,345.003
639.58,345.164
639.778,345.237
639.976,345.324
640.174,345.69
640.372,346.444
640.57,346.611
640.767,346.872
640.965,346.854
641.163,346.985
641.361,347.403
641.559,347.987
641.756,348.477
641.954,348.549
642.152,349.211
642.35,349.622
642.547,349.6
642.745,349.839
642.943,350.386
643.14,350.904
643.338,351.376
643.536,351.965
643.733,352.105
643.931,352.209
644.128,352.364
644.326,352.559
644.524,352.829
644.721,352.813
644.919,353.273
645.116,353.629
645.314,354.056
645.511,354.03
645.709,354.353
645.906,355.074
646.104,355.489
646.301,356.06
646.498,356.044
646.696,356.461
646.893,356.63
647.091,356.706
647.288,356.691
647.485,357.19
647.683,357.562
647.88,358.042
648.077,358.513
648.275,358.763
648.472,359.155
648.669,359.519
648.867,359.949
649.064,360.355
649.261,360.981
649.458,361.292
649.655,361.631
649.853,361.857
650.05,362.228
650.247,362.905
650.444,363.608
650.641,363.75
650.838,364.391
651.036,364.789
651.233,365.006
651.43,365.31
651.627,365.964
651.824,366.221
652.021,366.624
652.218,367.065
652.415,367.452
652.612,367.46
652.809,368.114
653.006,368.26
653.203,368.809
653.4,369.232
653.597,369.737
653.794,370.36
653.991,370.869
654.187,371.348
654.384,371.485
654.581,371.887
654.778,372.056
654.975,372.495
655.172,373.004
655.369,373.228
655.565,373.288
655.762,373.455
655.959,374.001
656.156,374.152
656.352,374.033
656.549,374.429
656.746,374.567
656.943,374.603
657.139,374.92
657.336,375.351
657.533,375.78
657.729,376.024
657.926,376.407
658.122,377.247
658.319,377.89
658.516,378.204
658.712,378.675
658.909,379.078
659.105,379.374
659.302,379.72
659.498,380.084
659.695,380.183
659.891,380.416
660.088,380.659
660.284,381.144
660.481,381.605
660.677,382.087
660.874,382.365
661.07,382.699
661.266,383.085
661.463,383.11
661.659,383.362
661.856,383.461
662.052,383.709
662.248,383.593
662.444,383.909
662.641,384.058
662.837,384.296
663.033,384.901
663.23,384.94
663.426,384.9
663.622,385.387
663.818,385.621
664.014,385.866
664.211,386.03
664.407,386.304
664.603,386.627
664.799,386.898
664.995,387.097
665.191,387.348
665.387,387.615
665.584,387.615
665.78,387.81
665.976,387.795
666.172,388.009
666.368,388.206
666.564,388.428
666.76,388.793
666.956,389.245
667.152,389.404
667.348,389.926
667.544,390.353
667.74,390.499
667.936,390.403
668.131,390.438
668.327,390.394
668.523,390.951
668.719,391.397
668.915,391.309
669.111,391.531
669.307,391.755
669.502,392.069
669.698,392.488
669.894,392.662
670.09,392.839
670.285,392.831
670.481,393.013
670.677,392.872
670.873,392.687
671.068,392.115
671.264,392.277
671.46,392.374
671.655,392.214
671.851,392.419
672.047,392.428
672.242,392.227
672.438,392.237
672.633,392.417
672.829,392.218
673.025,392.121
673.22,392.018
673.416,391.895
673.611,392.066
673.807,392.12
674.002,391.9
674.198,392.016
674.393,392.037
674.589,391.819
674.784,391.722
674.979,391.879
675.175,391.797
675.37,391.508
675.566,391.664
675.761,391.618
675.956,391.483
676.152,391.505
676.347,391.545
676.542,391.704
676.738,391.686
676.933,391.232
677.128,391.379
677.323,391.634
677.519,391.439
677.714,391.625
677.909,391.852
678.104,392.034
678.299,392.082
678.494,391.957
678.69,391.852
678.885,391.82
679.08,391.767
679.275,392.079
679.47,391.742
679.665,391.59
679.86,391.037
680.055,390.87
680.25,390.653
680.445,390.801
680.64,390.806
680.835,390.416
681.03,390.137
681.225,390.071
681.42,390.154
681.615,389.681
681.81,389.316
682.005,389.453
682.2,389.336
682.395,389.01
682.59,388.978
682.785,388.922
682.979,388.479
683.174,388.426
683.369,387.961
683.564,387.831
683.759,387.483
683.953,387.456
684.148,387.378
684.343,386.908
684.538,386.788
684.732,386.19
684.927,386.165
685.122,386.272
685.316,385.98
685.511,385.417
685.706,384.927
685.9,385.061
686.095,384.833
686.29,384.446
686.484,384.338
686.679,384.008
686.873,383.827
687.068,383.345
687.262,383.063
687.457,382.541
687.651,382.295
687.846,381.79
688.04,381.833
688.235,381.367
688.429,380.958
688.624,380.27
688.818,379.975
689.013,379.556
689.207,379.327
689.401,378.956
689.596,378.39
689.79,378.062
689.984,377.799
690.179,377.341
690.373,377.022
690.567,376.594
690.762,376.409
690.956,376.045
691.15,375.699
691.344,375.151
691.538,374.792
691.733,374.366
691.927,374.192
692.121,373.575
692.315,373.244
692.509,372.857
692.703,372.421
692.898,371.971
693.092,371.646
693.286,371.157
693.48,370.682
693.674,370.51
693.868,370.179
694.062,370.024
694.256,369.577
694.45,369.111
694.644,369.173
694.838,368.925
695.032,368.766
695.226,368.29
695.42,367.886
695.614,367.966
695.808,367.597
696.002,367.391
696.195,367.166
696.389,366.644
696.583,366.287
696.777,366.12
696.971,365.689
697.165,365.48
697.358,364.67
697.552,363.987
697.746,363.551
697.94,363.232
698.133,363.155
698.327,362.729
698.521,362.51
698.715,361.811
698.908,361.447
699.102,361.405
699.296,361.147
699.489,360.724
699.683,360.097
699.876,359.72
700.07,359.425
700.264,359.13
700.457,358.799
700.651,358.647
700.844,358.63
701.038,358.424
701.231,358.306
701.425,358.087
701.618,357.95
701.812,357.636
702.005,357.259
702.199,356.928
702.392,356.784
702.586,356.891
702.779,356.59
702.972,356.482
703.166,356.476
703.359,356.445
703.552,355.857
703.746,355.577
703.939,355.444
704.132,355.158
704.326,355.03
704.519,354.869
704.712,354.705
704.905,354.54
705.099,354.368
705.292,354.204
705.485,354.271
705.678,353.984
705.871,353.58
706.064,353.4
706.258,353.058
706.451,352.649
706.644,352.49
706.837,352.543
707.03,352.521
707.223,352.503
707.416,352.345
707.609,351.692
707.802,351.685
707.995,351.527
708.188,351.388
708.381,351.062
708.574,351.048
708.767,350.525
708.96,350.144
709.153,350.096
709.346,350.265
709.539,349.867
709.732,349.706
709.924,349.721
710.117,349.794
710.31,349.331
710.503,349.27
710.696,349.559
710.889,349.478
711.081,349.483
711.274,349.592
711.467,349.626
711.66,349.378
711.852,349.309
712.045,349.353
712.238,349.246
712.43,349.334
712.623,348.885
712.816,348.675
713.008,348.896
713.201,348.907
713.394,348.723
713.586,348.738
713.779,348.758
713.971,348.934
714.164,348.998
714.356,349.026
714.549,349.15
714.741,349.32
714.934,349.618
715.126,349.727
715.319,349.697
715.511,349.562
715.704,349.444
715.896,349.786
716.088,349.802
716.281,349.586
716.473,349.87
716.666,349.792
716.858,349.694
717.05,349.619
717.243,349.787
717.435,349.985
717.627,350.082
717.819,350.304
718.012,350.529
718.204,350.803
718.396,351.416
718.588,351.721
718.781,351.968
718.973,352.401
719.165,352.546
719.357,352.658
719.549,352.459
719.741,352.619
719.934,352.708
720.126,352.894
720.318,353.174
720.51,353.327
720.702,353.685
720.894,354.068
721.086,354.736
721.278,354.923
721.47,355.21
721.662,355.374
721.854,356.308
722.046,356.614
722.238,357.153
722.43,357.599
722.622,358.184
722.814,358.2
723.005,358.697
723.197,359.147
723.389,359.382
723.581,360.204
723.773,360.585
723.965,361.132
724.156,361.623
724.348,362.177
724.54,362.741
724.732,363.119
724.923,363.56
725.115,364.361
725.307,364.995
725.499,365.791
725.69,366.209
725.882,367.161
726.074,367.837
726.265,368.832
726.457,369.369
726.648,370.166
726.84,370.651
727.032,371.512
727.223,372.193
727.415,372.985
727.606,374.064
727.798,374.968
727.989,375.548
728.181,376.376
728.372,377.432
728.564,378.162
728.755,379.185
728.947,379.805
729.138,380.606
729.329,381.722
729.521,382.681
729.712,383.508
729.904,384.594
730.095,385.765
730.286,386.843
730.478,387.785
730.669,388.923
730.86,390.386
731.051,391.526
731.243,392.492
731.434,393.863
731.625,395.415
731.816,396.42
732.008,397.823
732.199,399.308
732.39,400.725
732.581,401.878
732.772,402.821
732.963,404.298
733.154,405.536
733.346,406.702
733.537,408.011
733.728,409.088
733.919,410.541
734.11,412.286
734.301,413.441
734.492,414.917
734.683,416.258
734.874,417.787
735.065,419.33
735.256,420.829
735.447,422.385
735.638,424.298
735.829,425.763
736.019,427.519
736.21,429.528
736.401,431.237
736.592,433.088
736.783,434.866
736.974,437.012
737.164,438.57
737.355,440.98
737.546,442.846
737.737,444.671
737.928,446.181
738.118,448.121
738.309,450.614
738.5,452.755
738.69,454.646
738.881,456.762
739.072,458.759
739.262,460.886
739.453,462.982
739.644,464.967
739.834,467.079
740.025,469.643
740.215,471.979
740.406,474.494
740.596,476.757
740.787,479.025
740.978,481.458
741.168,484.015
741.358,486.466
741.549,489.122
741.739,491.248
741.93,493.816
742.12,496.434
742.311,499.034
742.501,501.468
742.691,504.029
742.882,506.887
743.072,509.415
743.263,512.069
743.453,514.677
743.643,517.428
743.833,520.493
744.024,523.005
744.214,525.987
744.404,528.731
744.594,531.625
744.785,534.603
744.975,537.611
745.165,540.621
745.355,543.279
745.545,546.12
745.736,548.951
745.926,551.966
746.116,555.208
746.306,558.154
746.496,561.205
746.686,564.214
746.876,567.244
747.066,570.121
747.256,573.746
747.446,577.08
747.636,580.177
747.826,583.331
748.016,586.598
748.206,590.007
748.396,593.283
748.586,596.466
748.776,600.028
748.966,603.305
749.156,606.685
749.346,609.969
749.535,613.245
749.725,616.653
749.915,620.009
750.105,623.539
750.295,627.169
750.484,630.554
750.674,634.298
750.864,637.663
751.054,641.579
751.243,645.027
751.433,648.55
751.623,651.895
751.812,655.483
752.002,659.11
752.192,662.753
752.381,666.125
752.571,669.691
752.761,673.66
752.95,677.124
753.14,680.432
753.329,683.952
753.519,687.48
753.708,691.542
753.898,695.213
754.087,698.74
754.277,702.169
754.466,706.094
754.656,709.759
754.845,713.439
755.035,717.102
755.224,721.141
755.413,725.135
755.603,728.824
755.792,732.48
755.982,736.293
756.171,739.861
756.36,743.705
756.549,747.164
756.739,750.985
756.928,755.023
757.117,758.899
757.307,762.804
757.496,766.636
757.685,770.333
757.874,774.608
758.063,778.474
758.253,782.226
758.442,785.789
758.631,789.399
758.82,793.589
759.009,797.337
759.198,801.023
759.387,804.571
759.576,808.529
759.765,812.389
759.954,816.231
760.143,819.403
760.332,822.914
760.521,826.87
760.71,830.41
760.899,834.066
761.088,837.971
761.277,841.789
761.466,845.204
761.655,849.008
761.844,852.756
762.033,856.909
762.222,860.164
762.411,863.545
762.599,867.419
762.788,871.007
762.977,874.499
763.166,878.265
763.355,881.997
763.543,885.666
763.732,889.699
763.921,893.359
764.109,896.863
764.298,900.286
764.487,903.769
764.675,907.495
764.864,910.922
765.053,914.37
765.241,917.716
765.43,920.907
765.619,924.305
765.807,927.561
765.996,930.455
766.184,933.97
766.373,937.584
766.561,940.678
766.75,944.037
766.938,947.039
767.127,950.671
767.315,954.089
767.504,957.266
767.692,960.487
767.881,963.832
768.069,967.152
768.257,970.036
768.446,973.083
768.634,976.457
768.822,979.211
769.011,982.191
769.199,985.305
769.387,988.504
769.576,991.258
769.764,993.778
769.952,996.591
770.14,999.409
770.328,1002.08
770.517,1004.94
770.705,1007.89
770.893,1010.84
771.081,1013.58
771.269,1016.22
771.457,1019.04
771.646,1021.81
771.834,1024.93
772.022,1027.64
772.21,1029.91
772.398,1032.52
772.586,1035.09
772.774,1037.81
772.962,1040.11
773.15,1042.77
773.338,1045.14
773.526,1047.37
773.714,1049.71
773.902,1052.36
774.09,1055.06
774.278,1057.16
774.465,1059.44
774.653,1061.55
774.841,1063.55
775.029,1065.4
775.217,1067.54
775.405,1069.18
775.592,1071.24
775.78,1073.4
775.968,1075.73
776.156,1077.49
776.343,1079
776.531,1080.75
776.719,1082.75
776.907,1084.44
777.094,1086.12
777.282,1087.66
777.47,1089.41
777.657,1091.28
777.845,1092.88
778.032,1094.44
778.22,1095.79
778.408,1097.13
778.595,1098.48
778.783,1100.09
778.97,1101.35
779.158,1102.3
779.345,1103.5
779.533,1104.76
779.72,1106.19
779.908,1107.09
780.095,1108.19
780.282,1109.29
780.47,1110.25
780.657,1111.26
780.845,1111.89
781.032,1112.81
781.219,1113.84
781.407,1114.77
781.594,1115.48
781.781,1115.92
781.969,1116.64
782.156,1117.23
782.343,1118.01
782.53,1118.8
782.718,1119.65
782.905,1120.45
783.092,1120.98
783.279,1121.66
783.466,1122.25
783.653,1123.05
783.841,1123.89
784.028,1124.16
784.215,1124.64
784.402,1125.21
784.589,1125.59
784.776,1126.07
784.963,1126.42
785.15,1126.53
785.337,1126.89
785.524,1126.95
785.711,1127.07
785.898,1127.62
786.085,1127.68
786.272,1127.72
786.459,1127.94
786.646,1128.22
786.833,1128.34
787.02,1128.37
787.206,1128.68
787.393,1128.8
787.58,1128.62
787.767,1128.55
787.954,1128.4
788.14,1128.35
788.327,1128.38
788.514,1128.13
788.701,1127.99
788.887,1127.44
789.074,1127.58
789.261,1127.31
789.448,1127.05
789.634,1127.08
789.821,1126.8
790.008,1126.39
790.194,1126.31
790.381,1126.53
790.567,1126.16
790.754,1126.01
790.94,1126.12
791.127,1125.69
791.314,1125.68
791.5,1124.85
791.687,1124.58
791.873,1124.63
792.059,1124.63
792.246,1124.19
792.432,1123.93
792.619,1123.56
792.805,1123.42
792.992,1122.64
793.178,1121.92
793.364,1121.74
793.551,1121.5
793.737,1121.1
793.923,1120.9
794.11,1120.76
794.296,1120.76
794.482,1120.07
794.668,1119.36
794.855,1118.93
795.041,1118.44
795.227,1118.1
795.413,1117.92
795.599,1117.43
795.786,1117.05
795.972,1116.45
796.158,1116.16
796.344,1115.85
796.53,1115.61
796.716,1114.83
796.902,1114.49
797.088,1114.02
797.274,1113.38
797.46,1112.81
797.646,1112.22
797.832,1112.15
798.018,1111.85
798.204,1111.23
798.39,1110.86
798.576,1110.2
798.762,1109.95
798.948,1109.3
799.134,1109.4
799.32,1108.65
799.506,1108.26
799.692,1107.61
799.877,1107.47
800.063,1107.3
800.249,1106.88
800.435,1106.43
800.621,1106.03
800.806,1105.58
800.992,1104.74
801.178,1103.92
801.363,1102.77
801.549,1102.26
801.735,1101.76
801.92,1101.36
802.106,1100.86
802.292,1100.23
802.477,1099.67
802.663,1099.08
802.849,1098.56
803.034,1098.62
803.22,1098.29
803.405,1097.66
803.591,1097.81
803.776,1097.25
803.962,1096.82
804.147,1096.56
804.333,1095.96
804.518,1095.75
804.703,1095.04
804.889,1094.36
805.074,1094.12
805.26,1093.59
805.445,1093.03
805.63,1092.33
805.816,1092.55
806.001,1092.1
806.186,1091.66
806.372,1091.44
806.557,1090.87
806.742,1090.41
806.927,1090.21
807.113,1090.07
807.298,1089.71
807.483,1089.29
807.668,1088.88
807.853,1088.57
808.039,1088.02
808.224,1087.47
808.409,1087.09
808.594,1086.5
808.779,1086.19
808.964,1085.52
809.149,1084.96
809.334,1084.2
809.519,1083.75
809.704,1083.24
809.889,1082.87
810.074,1082.37
810.259,1082.13
810.444,1081.91
810.629,1081.23
810.814,1080.76
810.999,1080.52
811.184,1079.83
811.369,1079.14
811.554,1078.39
811.738,1077.97
811.923,1077.37
812.108,1076.68
812.293,1076.03
812.478,1075.82
812.662,1075.32
812.847,1074.88
813.032,1074.42
813.217,1073.68
813.401,1072.99
813.586,1072.68
813.771,1072.3
813.955,1071.61
814.14,1071.07
814.325,1070.51
814.509,1069.97
814.694,1069.59
814.878,1069.16
815.063,1068.51
815.248,1067.78
815.432,1066.93
815.617,1066.6
815.801,1066.26
815.986,1065.94
816.17,1065.22
816.355,1064.89
816.539,1064.45
816.723,1064
816.908,1063.18
817.092,1062.66
817.277,1062.17
817.461,1061.89
817.645,1061.37
817.83,1060.83
818.014,1060.37
818.198,1059.99
818.383,1059.57
818.567,1058.94
818.751,1058.26
818.935,1057.65
819.12,1057.5
819.304,1057.14
819.488,1056.77
819.672,1056.2
819.856,1055.4
820.041,1054.78
820.225,1053.96
820.409,1053.44
820.593,1052.95
820.777,1052.61
820.961,1052.12
821.145,1051.25
821.329,1050.9
821.513,1050.29
821.697,1049.6
821.881,1048.97
822.065,1048.42
822.249,1047.94
822.433,1047.26
822.617,1046.82
822.801,1046.41
822.985,1046.07
823.169,1045.35
823.353,1044.73
823.536,1044.5
823.72,1044.06
823.904,1043.24
824.088,1042.71
824.272,1041.85
824.456,1041.11
824.639,1040.62
824.823,1040.04
825.007,1039.12
825.19,1038.56
825.374,1037.89
825.558,1037.43
825.742,1036.63
825.925,1036.04
826.109,1035.66
826.292,1034.69
826.476,1033.96
826.66,1033.38
826.843,1032.5
827.027,1031.89
827.21,1031.41
827.394,1030.6
827.577,1029.43
827.761,1028.65
827.944,1027.79
828.128,1026.95
828.311,1026.23
828.495,1025.05
828.678,1024.18
828.862,1023.22
829.045,1022.33
829.228,1021.27
829.412,1020.27
829.595,1019.43
829.778,1018.81
829.962,1017.83
830.145,1017.05
830.328,1016.43
830.512,1015.19
830.695,1013.88
830.878,1012.95
831.061,1011.71
831.244,1010.38
831.428,1008.98
831.611,1008
831.794,1007.04
831.977,1005.92
832.16,1004.77
832.343,1003.65
832.526,1002.65
832.709,1001.4
832.893,1000.24
833.076,999.297
833.259,998.215
833.442,997.101
833.625,995.428
833.808,994.498
833.991,993.16
834.174,992.129
834.356,991.11
834.539,989.851
834.722,989.054
834.905,987.583
835.088,986.541
835.271,985.33
835.454,984.349
835.637,983.257
835.819,981.989
836.002,980.766
836.185,979.424
836.368,978.646
836.551,977.323
836.733,975.778
836.916,974.369
837.099,972.768
837.281,971.404
837.464,970.303
837.647,969.017
837.829,967.643
838.012,966.475
838.195,965.331
838.377,963.992
838.56,962.664
838.742,961.192
838.925,959.955
839.107,958.413
839.29,957.069
839.472,955.665
839.655,954.429
839.837,953.098
840.02,951.429
840.202,949.963
840.385,948.814
840.567,947.23
840.749,946.117
840.932,944.803
841.114,943.256
841.297,941.724
841.479,940.338
841.661,939.015
841.843,937.671
842.026,936.06
842.208,934.787
842.39,933.47
842.572,932.205
842.755,930.315
842.937,928.959
843.119,927.388
843.301,925.77
843.483,924.448
843.666,923.204
843.848,921.571
844.03,919.643
844.212,918.383
844.394,917.051
844.576,915.332
844.758,913.627
844.94,912.128
845.122,910.912
845.304,909.738
845.486,908.587
845.668,907.307
845.85,905.836
846.032,904.531
846.214,903.332
846.396,901.847
846.578,900.311
846.759,898.775
846.941,897.187
847.123,895.425
847.305,893.768
847.487,892.517
847.669,890.985
847.85,889.388
848.032,887.982
848.214,886.453
848.396,884.814
848.577,883.316
848.759,882.069
848.941,880.679
849.122,879.306
849.304,877.639
849.486,876.361
849.667,875.103
849.849,873.663
850.03,872.538
850.212,871.342
850.394,869.79
850.575,868.031
850.757,866.809
850.938,865.502
851.12,864.18
851.301,863.096
851.483,861.716
851.664,860.182
851.845,858.826
852.027,857.623
852.208,856.435
852.39,854.903
852.571,853.48
852.752,852.044
852.934,851.175
853.115,849.758
853.296,848.542
853.478,847.602
853.659,846.347
853.84,845.049
854.021,843.802
854.203,842.314
854.384,841.261
854.565,840.101
854.746,838.876
854.927,837.601
855.108,836.47
855.29,835.51
855.471,834.266
855.652,833.397
855.833,832.152
856.014,830.914
856.195,829.495
856.376,828.46
856.557,827.601
856.738,826.549
856.919,825.504
857.1,824.274
857.281,822.919
857.462,821.773
857.643,820.214
857.824,819.188
858.005,818.061
858.185,817.02
858.366,816.147
858.547,815.153
858.728,814.183
858.909,813.236
859.09,812.361
859.27,811.342
859.451,810.636
859.632,809.447
859.813,808.35
859.993,807.392
860.174,806.746
860.355,805.565
860.535,804.499
860.716,803.319
860.897,802.59
861.077,801.594
861.258,800.481
861.438,799.656
861.619,799.129
861.8,798.295
861.98,797.214
862.161,796.007
862.341,795.513
862.522,794.759
862.702,793.62
862.883,793.1
863.063,792.28
863.243,791.534
863.424,790.815
863.604,789.847
863.785,788.656
863.965,787.992
864.145,787.259
864.326,786.467
864.506,785.677
864.686,784.965
864.867,784.334
865.047,783.63
865.227,783.115
865.407,782.605
865.588,781.82
865.768,780.933
865.948,779.939
866.128,779.162
866.308,778.179
866.488,777.758
866.669,777.26
866.849,776.426
867.029,776.022
867.209,775.407
867.389,774.675
867.569,774.189
867.749,773.364
867.929,772.875
868.109,772.202
868.289,771.702
868.469,770.956
868.649,770.489
868.829,769.711
869.009,768.993
869.189,768.284
869.369,767.611
869.548,766.84
869.728,766.322
869.908,765.639
870.088,764.929
870.268,764.482
870.448,764.082
870.627,763.332
870.807,762.879
870.987,762.362
871.167,761.634
871.346,761.094
871.526,760.152
871.706,759.639
871.885,759.058
872.065,758.574
872.245,757.749
872.424,757.09
872.604,756.672
872.783,755.738
872.963,755.079
873.142,754.603
873.322,754.31
873.501,753.858
873.681,753.164
873.86,752.317
874.04,751.88
874.219,751.455
874.399,751.039
874.578,750.417
874.758,750.219
874.937,749.68
875.116,749.311
875.296,748.585
875.475,748.348
875.654,747.758
875.834,747.493
876.013,746.735
876.192,746.284
876.372,745.918
876.551,745.392
876.73,744.858
876.909,744.549
877.088,743.932
877.268,743.469
877.447,742.788
877.626,742.487
877.805,741.682
877.984,741.385
878.163,741.11
878.342,740.65
878.521,740.068
878.7,739.296
878.879,738.873
879.059,738.627
879.238,738.094
879.417,737.473
879.595,737.056
879.774,736.479
879.953,735.7
880.132,735.126
880.311,734.629
880.49,734.101
880.669,733.379
880.848,732.934
881.027,732.489
881.205,731.955
881.384,731.097
881.563,730.355
881.742,729.657
881.921,728.967
882.099,728.783
882.278,728.115
882.457,727.485
882.635,726.951
882.814,726.627
882.993,726.226
883.171,725.715
883.35,725.141
883.529,724.799
883.707,724.308
883.886,724.211
884.064,723.742
884.243,723.254
884.422,722.71
884.6,722.299
884.779,721.982
884.957,721.133
885.136,720.723
885.314,720.053
885.492,719.768
885.671,719.249
885.849,718.556
886.028,718.088
886.206,717.194
886.384,716.459
886.563,715.928
886.741,715.838
886.919,715.227
887.098,714.67
887.276,714.005
887.454,713.396
887.632,712.792
887.811,712.113
887.989,711.46
888.167,710.862
888.345,710.523
888.523,709.887
888.702,709.312
888.88,708.761
889.058,707.771
889.236,707.251
889.414,706.687
889.592,705.867
889.77,705.234
889.948,704.713
890.126,704.157
890.304,703.564
890.482,702.857
890.66,702.154
890.838,701.494
891.016,700.794
891.194,700.145
891.372,699.263
891.55,698.701
891.728,697.697
891.905,696.941
892.083,696.073
892.261,695.458
892.439,694.941
892.617,694.067
892.794,693.097
892.972,692.296
893.15,691.756
893.328,691.348
893.505,690.425
893.683,690.001
893.861,689.241
894.038,688.57
894.216,687.972
894.394,687.24
894.571,686.504
894.749,685.919
894.926,684.95
895.104,684.1
895.281,683.209
895.459,682.029
895.637,681.228
895.814,680.307
895.992,679.697
896.169,678.237
896.346,677.306
896.524,676.593
896.701,675.744
896.879,674.713
897.056,673.735
897.233,672.771
897.411,672.015
897.588,671.013
897.765,669.74
897.943,668.833
898.12,668.078
898.297,667.156
898.475,665.902
898.652,665.344
898.829,664.205
899.006,663.125
899.183,661.803
899.361,660.694
899.538,659.662
899.715,658.842
899.892,657.986
900.069,656.983
900.246,655.898
900.423,654.841
900.6,653.364
900.777,652.431
900.954,651.471
901.131,650.38
901.308,649.076
901.485,647.977
901.662,647.068
901.839,646.2
902.016,645.019
902.193,643.772
902.37,642.578
902.547,641.411
902.724,640.359
902.9,639.061
903.077,637.89
903.254,636.815
903.431,635.753
903.608,634.736
903.784,633.419
903.961,632.282
904.138,630.783
904.315,629.819
904.491,628.344
904.668,627.352
904.845,626.164
905.021,624.944
905.198,624.013
905.375,622.89
905.551,621.716
905.728,620.533
905.904,619.447
906.081,618.249
906.257,616.818
906.434,615.71
906.61,614.188
906.787,612.936
906.963,611.599
907.14,610.372
907.316,609.047
907.493,607.701
907.669,606.265
907.845,605.005
908.022,604.123
908.198,602.942
908.374,601.377
908.551,600.095
908.727,599.109
908.903,597.835
909.08,596.497
909.256,595.316
909.432,594.283
909.608,593.155
909.785,591.838
909.961,590.435
910.137,589.027
910.313,587.986
910.489,586.735
910.665,585.396
910.841,583.982
911.018,582.851
911.194,581.242
911.37,580.126
911.546,578.627
911.722,577.397
911.898,576.169
912.074,574.81
912.25,573.418
912.426,572.006
912.602,570.714
912.777,569.447
912.953,568.228
913.129,567.31
913.305,566.097
913.481,564.939
913.657,563.656
913.833,562.249
914.008,561.073
914.184,559.72
914.36,558.778
914.536,557.461
914.712,555.866
914.887,554.672
915.063,553.409
915.239,552.505
915.414,551.171
915.59,549.96
915.766,548.854
915.941,548.004
916.117,546.585
916.292,545.684
916.468,544.61
916.644,543.559
916.819,542.385
916.995,541.623
917.17,540.253
917.346,539.162
917.521,538.088
917.697,536.578
917.872,535.428
918.048,534.262
918.223,532.898
918.398,532.009
918.574,530.759
918.749,529.936
918.924,528.74
919.1,527.368
919.275,526.108
919.45,524.677
919.626,523.58
919.801,522.207
919.976,521.032
920.151,520.019
920.327,518.653
920.502,517.592
920.677,516.305
920.852,515.204
921.027,513.785
921.202,512.562
921.378,511.447
921.553,510.176
921.728,509.17
921.903,508.118
922.078,506.834
922.253,505.371
922.428,504.274
922.603,503.283
922.778,502.255
922.953,501.078
923.128,499.851
923.303,498.715
923.478,497.939
923.652,497.073
923.827,495.765
924.002,494.613
924.177,493.371
924.352,492.144
924.527,491.057
924.702,489.868
924.876,488.567
925.051,487.348
925.226,486.269
925.401,484.839
925.575,483.745
925.75,482.979
925.925,481.775
926.099,480.508
926.274,479.438
926.449,478.463
926.623,477.409
926.798,476.201
926.972,475.271
927.147,474.473
927.322,473.294
927.496,472.387
927.671,471.416
927.845,470.254
928.02,469.027
928.194,468.171
928.368,466.983
928.543,465.603
928.717,464.272
928.892,463.149
929.066,461.875
929.24,460.728
929.415,459.435
929.589,458.283
929.763,456.992
929.938,455.834
930.112,454.681
930.286,453.62
930.461,452.662
930.635,451.4
930.809,450.238
930.983,449.14
931.157,448.069
931.332,446.852
931.506,446.009
931.68,445.003
931.854,443.992
932.028,442.932
932.202,441.955
932.376,441.179
932.55,440.193
932.724,438.744
932.898,437.652
933.072,436.843
933.246,436.14
933.42,434.848
933.594,433.434
933.768,432.412
933.942,431.073
934.116,430.068
934.29,429.059
934.464,428.277
934.638,427.378
934.811,426.421
934.985,425.29
935.159,423.956
935.333,422.894
935.507,421.809
935.68,420.628
935.854,419.744
936.028,418.579
936.201,417.605
936.375,416.856
936.549,416.012
936.722,415.07
936.896,413.975
937.07,412.868
937.243,412.191
937.417,411.41
937.59,410.266
937.764,409.177
937.938,408.158
938.111,407.132
938.285,406.432
938.458,405.344
938.631,404.426
938.805,403.505
938.978,402.729
939.152,401.771
939.325,401.132
939.499,400.202
939.672,399.26
939.845,398.227
940.019,397.184
940.192,396.324
940.365,395.17
940.538,394.37
940.712,393.52
940.885,392.703
941.058,392.153
941.231,391.337
941.405,390.518
941.578,389.455
941.751,388.623
941.924,387.807
942.097,386.777
942.27,385.884
942.443,385.399
942.617,384.561
942.79,383.87
942.963,382.943
943.136,381.914
943.309,381.005
943.482,380.185
943.655,379.539
943.828,378.486
944.001,377.63
944.173,376.677
944.346,375.793
944.519,374.67
944.692,373.878
944.865,372.89
945.038,372.312
945.211,371.513
945.383,370.506
945.556,369.517
945.729,368.79
945.902,367.96
946.075,367.058
946.247,366.358
946.42,365.549
946.593,364.729
946.765,363.957
946.938,362.987
947.111,362.37
947.283,361.586
947.456,360.6
947.628,359.548
947.801,359.079
947.974,357.9
948.146,356.864
948.319,355.871
948.491,355.393
948.664,354.385
948.836,353.544
949.009,352.823
949.181,352.064
949.353,351.188
949.526,350.24
949.698,349.604
949.871,348.882
950.043,348.025
950.215,346.92
950.388,346.097
950.56,345.629
950.732,344.73
950.904,343.828
951.077,343.251
951.249,342.415
951.421,341.683
951.593,340.949
951.766,340.264
951.938,339.57
952.11,338.878
952.282,338.117
952.454,337.267
952.626,336.815
952.798,336.22
952.97,335.306
953.142,334.658
953.314,333.496
953.487,332.656
953.659,331.85
953.83,331.128
954.002,330.347
954.174,329.56
954.346,328.672
954.518,327.78
954.69,327.214
954.862,326.615
955.034,325.894
955.206,325.242
955.378,324.555
955.549,323.843
955.721,322.912
955.893,322.111
956.065,321.297
956.236,320.8
956.408,320.241
956.58,319.444
956.752,318.569
956.923,318.1
957.095,317.376
957.267,316.64
957.438,315.581
957.61,314.771
957.781,314.002
957.953,313.352
958.125,312.667
958.296,311.746
958.468,310.956
958.639,310.161
958.811,309.615
958.982,309.17
959.154,308.494
959.325,307.701
959.496,306.953
959.668,306.177
959.839,305.532
960.011,304.915
960.182,304.499
960.353,303.606
960.525,302.489
960.696,301.599
960.867,301.211
961.038,300.543
961.21,300.107
961.381,299.161
961.552,298.638
961.723,297.895
961.895,296.969
962.066,295.977
962.237,295.405
962.408,294.626
962.579,293.812
962.75,293.223
962.921,292.668
963.092,292.261
963.263,291.517
963.434,290.808
963.605,290.003
963.776,289.22
963.947,288.581
964.118,287.798
964.289,286.993
964.46,286.357
964.631,285.59
964.802,284.821
964.973,284.183
965.144,283.25
965.315,282.601
965.485,281.84
965.656,281.098
965.827,280.444
965.998,279.459
966.169,278.525
966.339,278.109
966.51,277.28
966.681,276.837
966.851,276.287
967.022,275.289
967.193,274.497
967.363,274.226
967.534,273.206
967.705,272.601
967.875,271.658
968.046,271.132
968.216,270.471
968.387,270.099
968.557,269.281
968.728,268.716
968.898,268.281
969.069,267.594
969.239,266.941
969.41,266.419
969.58,265.835
969.751,265.17
969.921,264.845
970.091,264.298
970.262,263.908
970.432,263.454
970.602,262.984
970.773,262.297
970.943,261.521
971.113,261.169
971.283,260.38
971.454,259.618
971.624,259.331
971.794,258.603
971.964,257.978
972.134,257.184
972.305,256.708
972.475,256.198
972.645,255.557
972.815,254.913
972.985,254.547
973.155,253.772
973.325,253.287
973.495,252.568
973.665,252.046
973.835,251.224
974.005,250.463
974.175,250.031
974.345,249.22
974.515,248.677
974.685,248.087
974.855,247.541
975.024,247.029
975.194,245.954
975.364,245.06
975.534,244.17
975.704,243.283
975.874,242.622
976.043,242.075
976.213,241.353
976.383,240.623
976.553,240.095
976.722,239.867
976.892,239.046
977.062,238.455
977.231,237.554
977.401,237.219
977.57,236.543
977.74,235.994
977.91,235.251
978.079,234.658
978.249,233.959
978.418,233.326
978.588,232.714
978.757,232.227
978.927,231.854
979.096,231.069
979.266,230.635
979.435,229.926
979.604,229.544
979.774,229.142
979.943,228.546
980.113,227.909
980.282,227.259
980.451,226.568
980.621,226.084
980.79,225.269
980.959,224.762
981.128,224.198
981.298,223.668
981.467,222.866
981.636,222.25
981.805,221.851
981.974,221.456
982.143,220.438
982.313,219.804
982.482,219.126
982.651,218.602
982.82,217.793
982.989,217.343
983.158,216.76
983.327,216.178
983.496,215.689
983.665,214.991
983.834,214.312
984.003,213.779
984.172,213.109
984.341,212.687
984.51,212.134
984.679,211.589
984.847,210.718
985.016,210.115
985.185,209.411
985.354,208.647
985.523,208.08
985.692,207.601
985.86,206.946
986.029,206.437
986.198,205.752
986.366,205.181
986.535,204.419
986.704,203.89
986.873,203.224
987.041,202.527
987.21,201.975
987.378,201.483
987.547,201.176
987.716,200.541
987.884,199.534
988.053,199.069
988.221,198.617
988.39,198.326
988.558,197.643
988.727,196.963
988.895,196.33
989.064,195.54
989.232,194.919
989.4,194.387
989.569,193.805
989.737,193.378
989.905,192.974
990.074,192.572
990.242,192.032
990.41,191.238
990.579,190.536
990.747,189.955
990.915,189.475
991.083,188.748
991.252,188.156
991.42,187.741
991.588,187.462
991.756,187.054
991.924,186.516
992.092,185.985
992.261,185.614
992.429,185.157
992.597,184.648
992.765,184.131
992.933,183.486
993.101,182.607
993.269,182.072
993.437,181.468
993.605,180.95
993.773,180.605
993.941,179.774
994.109,179.284
994.277,178.645
994.444,178.134
994.612,177.688
994.78,177.411
994.948,176.727
995.116,176.213
995.284,175.262
995.451,174.832
995.619,174.343
995.787,173.731
995.955,173.199
996.122,172.912
996.29,172.522
996.458,172.035
996.625,171.579
996.793,171.041
996.961,170.407
997.128,169.562
997.296,169.186
997.463,168.656
997.631,168.163
997.798,167.922
997.966,167.524
998.133,167.186
998.301,167.077
998.468,166.781
998.636,166.539
998.803,165.912
998.971,165.524
999.138,165.135
999.305,164.747
999.473,164.674
999.64,164.419
999.807,163.995
999.975,163.769
1000.14,163.343
1000.31,162.721
1000.48,162.634
1000.64,161.954
1000.81,161.29
1000.98,161.003
1001.15,160.776
1001.31,159.964
1001.48,159.731
1001.65,159.071
1001.81,158.484
1001.98,158.079
1002.15,157.906
1002.32,157.564
1002.48,157.387
1002.65,156.844
1002.82,156.275
1002.98,155.776
1003.15,155.329
1003.32,154.765
1003.48,154.305
1003.65,154.076
1003.82,153.295
1003.98,152.919
1004.15,152.382
1004.32,151.897
1004.49,151.193
1004.65,150.896
1004.82,150.34
1004.99,149.692
1005.15,149.693
1005.32,149.307
1005.49,148.606
1005.65,148.255
1005.82,147.537
1005.99,147.308
1006.15,146.766
1006.32,145.994
1006.49,145.759
1006.65,145.211
1006.82,144.578
1006.99,144.005
1007.15,143.673
1007.32,143.107
1007.49,142.507
1007.65,142.202
1007.82,141.801
1007.98,141.647
1008.15,141.379
1008.32,141.08
1008.48,140.742
1008.65,140.463
1008.82,140.291
1008.98,140.067
1009.15,139.983
1009.32,139.703
1009.48,139.361
1009.65,139.182
1009.81,138.902
1009.98,138.633
1010.15,138.228
1010.31,137.774
1010.48,137.069
1010.65,136.825
1010.81,136.459
1010.98,136.244
1011.14,135.6
1011.31,135.379
1011.48,135.024
1011.64,134.639
1011.81,134.082
1011.97,133.815
1012.14,133.425
1012.31,132.923
1012.47,132.406
1012.64,131.695
1012.8,131.253
1012.97,130.75
1013.14,130.123
1013.3,129.91
1013.47,129.369
1013.63,129.053
1013.8,128.677
1013.97,128.252
1014.13,128.122
1014.3,127.522
1014.46,127.045
1014.63,126.419
1014.79,126.185
1014.96,126.009
1015.13,125.887
1015.29,125.584
1015.46,125.05
1015.62,124.664
1015.79,124.212
1015.95,123.988
1016.12,123.735
1016.29,123.354
1016.45,123.1
1016.62,122.553
1016.78,122.252
1016.95,121.861
1017.11,121.569
1017.28,121.231
1017.44,121.104
1017.61,120.904
1017.78,120.61
1017.94,120.112
1018.11,120.048
1018.27,119.602
1018.44,119.269
1018.6,118.933
1018.77,118.424
1018.93,118.156
1019.1,117.555
1019.26,116.895
1019.43,116.493
1019.59,116.071
1019.76,115.519
1019.92,115.133
1020.09,115.009
1020.25,114.73
1020.42,114.323
1020.59,113.879
1020.75,113.37
1020.92,113.056
1021.08,112.572
1021.25,112.5
1021.41,112.703
1021.58,112.516
1021.74,112.222
1021.91,111.668
1022.07,111.444
1022.24,111.101
1022.4,110.907
1022.57,110.537
1022.73,110.225
1022.89,109.761
1023.06,109.672
1023.22,109.209
1023.39,109.007
1023.55,108.737
1023.72,108.478
1023.88,108.256
1024.05,107.999
1024.21,107.746
1024.38,107.467
1024.54,107.315
1024.71,107.208
1024.87,106.707
1025.04,106.165
1025.2,105.783
1025.37,105.729
1025.53,105.593
1025.7,105.258
1025.86,104.748
1026.02,104.241
1026.19,103.946
1026.35,103.879
1026.52,103.756
1026.68,103.536
1026.85,103.253
1027.01,103.334
1027.18,103.063
1027.34,103.064
1027.5,102.567
1027.67,90.5251
1027.83,135.376
1028,99.3723
1028.16,82.7838
1028.33,83.0295
1028.49,109.735
1028.65,89.5011
1028.82,79.1793
1028.98,89.1734
1029.15,56.4469
1029.31,68.448
1029.48,79.2203
1029.64,66.2362
1029.8,155.978
1029.97,93.3513
1030.13,129.6
1030.3,83.603
1030.46,70.3321
1030.62,117.681
1030.79,72.462
1030.95,44.5277
1031.12,36.213
1031.28,103.591
1031.44,132.549
1031.61,133.614
1031.77,83.1524
1031.94,72.8306
1032.1,106.622
1032.26,73.9775
1032.43,91.5491
1032.59,86.6749
1032.76,85.61
1032.92,130.788
1033.08,72.6668
1033.25,93.1465
1033.41,101.584
1033.57,111.988
1033.74,70.9465
1033.9,98.7989
1034.07,138.284
1034.23,117.927
1034.39,48.1321
1034.56,146.066
1034.72,62.7956
1034.88,94.1705
1035.05,81.555
1035.21,54.1122
1035.37,89.7469
1035.54,62.1402
1035.7,51.7775
1035.86,87.8627
1036.03,95.5631
1036.19,70.6598
1036.35,61.0343
1036.52,105.066
1036.68,102.854
1036.84,86.1834
1037.01,63.1642
1037.17,49.3609
1037.33,79.8757
1037.5,78.0325
1037.66,98.8808
1037.82,132.754
1037.99,117.026
1038.15,91.7129
1038.31,84.5041
1038.48,59.355
1038.64,50.3439
1038.8,90.8937
1038.97,40.186
1039.13,94.703
1039.29,62.0993
1039.46,114.978
1039.62,79.6709
1039.78,88.7638
1039.95,97.1605
1040.11,76.3122
1040.27,91.4672
1040.43,85.7738
1040.6,70.0454
1040.76,69.8406
1040.92,85.2004
1041.09,91.672
1041.25,71.0694
1041.41,66.1133
1041.57,78.8926
1041.74,123.497
1041.9,101.625
1042.06,80.6948
1042.23,61.8126
1042.39,63.9015
1042.55,81.2683
1042.71,119.32
1042.88,85.9786
1043.04,81.7598
1043.2,51.9004
1043.36,153.07
1043.53,91.0985
1043.69,92.9007
EndSpectrumFile,CALIBRATION
SpectrumFile,CALIBRATION
Version,1.000000
Location,
Customer,
SampleInfo,
GPSData,51.118491,-114.185425,1143.658447,1107,71211
SystemTime,2011,12,7,0,13,22,531
Pipe km,0.000000
Pre-Dilution Factor,1.000000
Freeform Info,
Concentration,1.000000
CalibrationName,paper-distance
Unique Calibration File ID,
CalibrationWavelength,780.000000
CalibrationType,2,-0.131013,0.002732
CalibrationRSquared,0.999340
CalibrationConcentrations [ppm],3,0.000000,1.000000,10.000000
CalibrationCounts,3,0.000000,468.909715,3701.410325
CalibrationWarnLow,0.000000
CalibrationWarnHigh,10.000000
CalibrationErrorLow,0.000000
CalibrationErrorHigh,0.000000
Spectrometer Name,USB4000
Spectrometer Serial,USB4H02759
IntegrationTime [ms],0.000000
AveragedSpectra,-858993460
BoxcarWidth,-858993460
WavelengthRange [nm],346.775360,1043.690197
IntensityRange [counts],-132.971198,1599.040602
WavelengthCount,3648
Wavelength [nm],Intensity [counts]
346.775,-132.644
346.991,-132.644
347.206,-132.644
347.421,-132.807
347.637,-132.971
347.852,80.2633
348.067,48.2331
348.282,68.508
348.498,41.5567
348.713,57.9404
348.928,78.7478
349.143,84.4412
349.358,25.8283
349.574,48.356
349.789,38.4438
350.004,101.931
350.219,43.1132
350.434,48.0692
350.649,53.6807
350.864,44.301
351.079,67.3201
351.295,84.9736
351.51,26.5656
351.725,44.3829
351.94,12.8442
352.155,42.0892
352.37,81.4102
352.585,40.8194
352.8,92.4282
353.015,17.9231
353.23,95.0087
353.445,33.8563
353.66,46.3899
353.875,81.9836
354.09,90.667
354.305,36.0681
354.52,64.3301
354.735,30.7434
354.949,85.1784
355.164,92.2644
355.379,19.9711
355.594,73.3821
355.809,90.9537
356.024,66.9515
356.239,64.8216
356.453,87.8408
356.668,63.7157
356.883,66.46
357.098,83.7449
357.313,56.5478
357.527,76.4131
357.742,43.1132
357.957,33.8154
358.172,52.4519
358.386,55.319
358.601,65.1903
358.816,103.078
359.03,34.6346
359.245,58.2681
359.46,112.908
359.674,54.4179
359.889,14.7693
360.104,87.8818
360.318,68.3851
360.533,56.3021
360.748,31.7674
360.962,72.7677
361.177,37.0921
361.391,63.2242
361.606,67.8117
361.82,66.0504
362.035,57.2032
362.25,38.6486
362.464,48.6017
362.679,124.418
362.893,61.381
363.108,72.1943
363.322,81.0825
363.536,64.7807
363.751,48.5608
363.965,60.8486
364.18,51.1412
364.394,65.8456
364.609,49.2571
364.823,68.7947
365.037,75.1024
365.252,66.46
365.466,40.5327
365.68,63.6338
365.895,64.7397
366.109,69.2862
366.323,47.2091
366.538,45.1611
366.752,48.0692
366.966,47.3729
367.181,50.363
367.395,40.5737
367.609,28.7774
367.823,111.802
368.038,65.7637
368.252,59.176
368.466,60.1007
368.68,61.15
368.894,62.0504
369.109,62.8609
369.323,64.0081
369.537,63.8965
369.751,63.9598
369.965,64.0067
370.179,64.0886
370.393,64.2032
370.607,64.175
370.822,64.2729
371.036,64.564
371.25,64.6405
371.464,64.8198
371.678,64.6987
371.892,64.8516
372.106,64.841
372.32,65.144
372.534,65.2724
372.748,65.4438
372.962,65.4254
373.176,65.6007
373.39,65.7472
373.604,66.0498
373.818,66.2613
374.031,66.0641
374.245,66.2255
374.459,66.1547
374.673,66.3194
374.887,66.2252
375.101,66.3813
375.315,66.5421
375.529,66.5293
375.742,66.4586
375.956,66.5327
376.17,66.5038
376.384,66.6122
376.598,66.3534
376.811,66.1647
377.025,66.6018
377.239,66.7541
377.453,66.846
377.666,66.9951
377.88,66.8957
378.094,67.2551
378.307,67.4019
378.521,67.5054
378.735,67.3106
378.948,67.387
379.162,67.4296
379.376,67.5272
379.589,67.9792
379.803,68.0478
380.016,67.8551
380.23,68.0556
380.444,68.0309
380.657,68.1711
380.871,68.231
381.084,68.0081
381.298,67.84
381.511,67.9119
381.725,68.0965
381.938,68.3087
382.152,68.3969
382.365,68.5031
382.579,68.4666
382.792,68.5872
383.006,68.6172
383.219,68.6537
383.433,68.7085
383.646,68.878
383.859,68.9163
384.073,69.0111
384.286,68.5962
384.5,68.5711
384.713,68.6111
384.926,68.5532
385.14,68.7961
385.353,68.8668
385.566,68.9037
385.779,68.9449
385.993,68.9477
386.206,69.1281
386.419,69.037
386.633,68.8134
386.846,69.0645
387.059,69.2232
387.272,69.2562
387.485,69.4967
387.699,69.34
387.912,69.5067
388.125,69.6954
388.338,70.1076
388.551,70.3554
388.764,70.4304
388.978,70.5162
389.191,70.5814
389.404,70.5649
389.617,70.4379
389.83,70.3884
390.043,70.5645
390.256,70.3185
390.469,70.4883
390.682,70.3772
390.895,70.3907
391.108,70.201
391.321,70.2277
391.534,69.8024
391.747,69.8717
391.96,69.4001
392.173,69.4712
392.386,69.857
392.599,70.0679
392.812,70.454
393.025,70.505
393.238,70.4606
393.451,70.4514
393.663,70.3426
393.876,70.6709
394.089,70.4781
394.302,70.6912
394.515,70.6676
394.728,70.572
394.941,70.5643
395.153,70.3848
395.366,70.3092
395.579,70.4098
395.792,70.1596
396.004,70.3175
396.217,70.2134
396.43,70.3147
396.643,70.6385
396.855,70.5584
397.068,70.7573
397.281,70.7844
397.493,70.7371
397.706,70.6529
397.919,70.6892
398.131,70.9344
398.344,70.9488
398.557,70.861
398.769,70.3809
398.982,70.5176
399.194,70.461
399.407,70.6735
399.619,70.7758
399.832,70.8673
400.045,71.035
400.257,71.6007
400.47,71.6616
400.682,71.9867
400.895,72.2446
401.107,72.3863
401.319,72.4712
401.532,72.3594
401.744,72.4782
401.957,72.6783
402.169,72.424
402.382,72.502
402.594,72.5436
402.806,72.8419
403.019,73.1231
403.231,72.9886
403.444,72.9495
403.656,72.9687
403.868,73.2425
404.081,73.5598
404.293,73.7764
404.505,73.6642
404.717,73.7171
404.93,74.0157
405.142,73.9012
405.354,74.12
405.566,74.3864
405.779,74.4061
405.991,74.4632
406.203,74.5202
406.415,74.4155
406.627,74.3334
406.84,74.3266
407.052,74.9044
407.264,74.6466
407.476,74.5997
407.688,74.9361
407.9,75.0193
408.112,75.2392
408.324,75.6428
408.537,75.7064
408.749,76.1435
408.961,76.3942
409.173,76.6921
409.385,76.8105
409.597,76.6532
409.809,76.6717
410.021,76.7428
410.233,76.9452
410.445,76.8087
410.657,77.3548
410.869,77.5561
411.081,77.6071
411.292,77.8457
411.504,78.0016
411.716,78.4008
411.928,78.6653
412.14,78.6869
412.352,78.7558
412.564,78.9023
412.776,78.9267
412.988,79.1933
413.199,78.9934
413.411,78.9718
413.623,78.9995
413.835,79.007
414.047,79.1181
414.258,79.5118
414.47,79.6738
414.682,79.546
414.894,79.6946
415.105,79.5281
415.317,79.5197
415.529,79.4753
415.74,79.4478
415.952,79.6579
416.164,79.7325
416.375,79.7372
416.587,79.8405
416.799,80.1749
417.01,80.3517
417.222,80.5066
417.433,80.8638
417.645,80.8518
417.857,80.9818
418.068,81.1306
418.28,81.2467
418.491,81.2745
418.703,81.5726
418.914,81.9365
419.126,82.3013
419.337,82.6746
419.549,82.7115
419.76,82.6591
419.972,82.6551
420.183,82.8541
420.394,82.8456
420.606,83.0936
420.817,82.8649
421.029,82.869
421.24,83.0117
421.451,83.234
421.663,83.6173
421.874,83.786
422.085,83.8798
422.297,83.7485
422.508,83.9727
422.719,84.692
422.931,84.8192
423.142,84.9355
423.353,85.272
423.565,85.5905
423.776,85.794
423.987,86.4245
424.198,86.7638
424.409,86.6823
424.621,86.8154
424.832,86.9564
425.043,87.2056
425.254,87.5196
425.465,87.6615
425.676,88.0154
425.888,88.3411
426.099,88.3804
426.31,88.4682
426.521,88.6349
426.732,88.8548
426.943,89.135
427.154,89.501
427.365,89.5161
427.576,89.7553
427.787,89.6236
427.998,89.7975
428.209,90.0451
428.42,90.3937
428.631,90.7522
428.842,90.8316
429.053,90.8663
429.264,91.4377
429.475,91.5789
429.686,91.8028
429.897,92.0718
430.108,92.0932
430.319,92.7836
430.529,92.8865
430.74,93.0563
430.951,93.2389
431.162,93.3874
431.373,93.503
431.584,93.8969
431.794,94.4255
432.005,94.4717
432.216,94.8746
432.427,95.0179
432.637,95.4374
432.848,96.1154
433.059,96.0859
433.27,96.1062
433.48,96.5823
433.691,96.8881
433.902,97.4785
434.112,97.6857
434.323,98.044
434.534,98.4688
434.744,98.7741
434.955,98.7731
435.166,98.8477
435.376,98.9186
435.587,99.3809
435.797,99.6644
436.008,99.7429
436.218,100.385
436.429,100.81
436.64,101.271
436.85,101.383
437.061,101.619
437.271,102.26
437.482,102.576
437.692,103.169
437.902,103.332
438.113,103.537
438.323,103.854
438.534,103.842
438.744,103.985
438.955,104.498
439.165,104.777
439.375,104.827
439.586,104.726
439.796,105.078
440.006,105.159
440.217,105.688
440.427,105.994
440.637,106.16
440.848,106.123
441.058,106.493
441.268,106.99
441.479,107.136
441.689,107.56
441.899,107.972
442.109,108.09
442.319,108.631
442.53,108.819
442.74,108.778
442.95,109.398
443.16,109.588
443.37,110.105
443.58,110.191
443.791,110.813
444.001,111.12
444.211,111.372
444.421,111.797
444.631,112.474
444.841,113.061
445.051,113.365
445.261,113.402
445.471,114.737
445.681,115.342
445.891,115.901
446.101,116.313
446.311,116.614
446.521,116.756
446.731,116.994
446.941,117.553
447.151,118.204
447.361,118.457
447.571,118.689
447.781,119.236
447.991,119.415
448.201,119.935
448.41,120.68
448.62,120.967
448.83,121.344
449.04,121.614
449.25,122.14
449.46,122.215
449.669,122.511
449.879,122.912
450.089,123.111
450.299,123.833
450.508,124.069
450.718,124.378
450.928,124.536
451.138,124.821
451.347,125.358
451.557,125.799
451.767,126.175
451.976,126.698
452.186,127.393
452.396,127.63
452.605,127.856
452.815,128.506
453.025,128.708
453.234,129.147
453.444,129.416
453.653,129.755
453.863,129.92
454.072,130.139
454.282,130.616
454.491,130.887
454.701,131.376
454.911,131.775
455.12,132.216
455.329,132.541
455.539,133.302
455.748,133.779
455.958,133.948
456.167,134.501
456.377,135.011
456.586,135.103
456.795,135.357
457.005,135.88
457.214,136.612
457.424,137.032
457.633,137.476
457.842,137.922
458.052,138.448
458.261,138.743
458.47,139.166
458.679,139.626
458.889,140.009
459.098,140.477
459.307,140.794
459.517,141.176
459.726,141.506
459.935,142.09
460.144,142.457
460.353,142.803
460.563,143.418
460.772,143.907
460.981,144.45
461.19,144.909
461.399,145.29
461.608,145.786
461.817,146.642
462.026,147.311
462.236,147.931
462.445,148.369
462.654,149.114
462.863,149.65
463.072,150.254
463.281,150.866
463.49,151.214
463.699,151.896
463.908,152.348
464.117,152.648
464.326,153.373
464.535,154.16
464.744,154.755
464.952,154.889
465.161,155.046
465.37,155.583
465.579,155.934
465.788,156.202
465.997,156.803
466.206,157.201
466.415,157.937
466.623,158.684
466.832,159.137
467.041,159.936
467.25,160.605
467.459,161.059
467.667,161.667
467.876,162.396
468.085,163.032
468.294,163.67
468.502,164.316
468.711,165.311
468.92,165.925
469.128,166.9
469.337,167.327
469.546,168.042
469.754,168.789
469.963,169.617
470.172,170.61
470.38,171.28
470.589,171.752
470.798,172.408
471.006,173.068
471.215,173.983
471.423,174.657
471.632,175.2
471.84,175.875
472.049,176.671
472.257,177.292
472.466,177.903
472.674,178.647
472.883,179.46
473.091,179.908
473.3,180.678
473.508,181.561
473.716,182.403
473.925,182.966
474.133,183.816
474.342,184.512
474.55,185.378
474.758,186.215
474.967,186.6
475.175,187.661
475.383,188.74
475.592,189.465
475.8,189.992
476.008,190.438
476.217,191.291
476.425,192.119
476.633,192.619
476.841,193.242
477.05,194.039
477.258,195.094
477.466,195.84
477.674,196.3
477.882,197.21
478.091,198.128
478.299,198.833
478.507,199.468
478.715,200.499
478.923,201.164
479.131,202.235
479.339,202.828
479.547,203.778
479.755,204.537
479.963,205.485
480.171,206.434
480.38,207.248
480.588,208.437
480.796,209.377
481.004,209.694
481.212,210.423
481.42,211.431
481.627,212.617
481.835,213.624
482.043,214.7
482.251,215.487
482.459,216.296
482.667,217.078
482.875,218.012
483.083,219.312
483.291,220.133
483.499,221.144
483.706,221.931
483.914,222.732
484.122,223.626
484.33,224.447
484.538,225.488
484.745,226.323
484.953,226.874
485.161,227.558
485.369,228.454
485.576,229.907
485.784,230.512
485.992,231.681
486.199,232.603
486.407,233.424
486.615,234.278
486.822,234.936
487.03,235.877
487.238,236.795
487.445,236.387
487.653,237.18
487.861,238.12
488.068,238.757
488.276,239.559
488.483,240.594
488.691,241.492
488.898,242.472
489.106,243.076
489.313,244.019
489.521,245.04
489.728,245.622
489.936,246.577
490.143,247.459
490.351,248.065
490.558,249.082
490.766,249.913
490.973,250.868
491.18,251.519
491.388,252.375
491.595,253.409
491.802,254.516
492.01,255.336
492.217,255.879
492.424,256.97
492.632,257.735
492.839,258.943
493.046,259.812
493.254,260.58
493.461,261.239
493.668,262.221
493.875,263.253
494.083,263.644
494.29,264.595
494.497,265.585
494.704,266.184
494.911,267.039
495.119,267.811
495.326,268.847
495.533,269.814
495.74,270.649
495.947,271.413
496.154,272.157
496.361,272.793
496.568,273.267
496.775,273.939
496.982,274.702
497.19,275.626
497.397,276.37
497.604,277.232
497.811,278.111
498.018,278.969
498.225,279.794
498.432,280.633
498.638,281.444
498.845,282.645
499.052,283.231
499.259,284.09
499.466,284.901
499.673,285.442
499.88,286.468
500.087,287.157
500.294,287.91
500.501,288.652
500.707,289.293
500.914,289.875
501.121,290.808
501.328,291.397
501.535,292.47
501.741,293.552
501.948,294.247
502.155,295.209
502.362,295.635
502.568,296.375
502.775,297.151
502.982,297.764
503.188,298.436
503.395,299.016
503.602,299.305
503.808,299.618
504.015,300.138
504.222,300.56
504.428,301.072
504.635,302.158
504.841,302.529
505.048,303.159
505.254,303.867
505.461,304.567
505.668,304.973
505.874,305.806
506.081,306.585
506.287,306.779
506.494,307.246
506.7,308.03
506.907,308.997
507.113,309.519
507.319,310.325
507.526,311.339
507.732,312.125
507.939,312.665
508.145,313.006
508.351,313.294
508.558,313.715
508.764,314.039
508.97,314.386
509.177,314.963
509.383,315.475
509.589,315.756
509.796,315.955
510.002,316.648
510.208,316.987
510.414,317.194
510.621,317.639
510.827,317.858
511.033,318.527
511.239,319.105
511.445,319.391
511.652,319.797
511.858,320.163
512.064,320.539
512.27,321.024
512.476,321.264
512.682,321.821
512.888,322.251
513.095,322.439
513.301,322.788
513.507,323.122
513.713,323.372
513.919,323.887
514.125,324.041
514.331,324.68
514.537,325.052
514.743,325.426
514.949,325.873
515.155,326.276
515.361,326.431
515.567,326.794
515.773,326.895
515.978,327.227
516.184,327.464
516.39,327.389
516.596,327.74
516.802,327.925
517.008,328.023
517.214,328.195
517.419,328.763
517.625,329.213
517.831,329.546
518.037,329.679
518.243,330.189
518.448,330.666
518.654,331.042
518.86,331.231
519.066,331.762
519.271,332.078
519.477,332.341
519.683,332.582
519.888,332.963
520.094,333.213
520.3,333.144
520.505,333.628
520.711,333.945
520.917,334.514
521.122,334.889
521.328,335.084
521.533,335.291
521.739,335.841
521.944,336.063
522.15,336.161
522.356,336.398
522.561,336.927
522.767,337.035
522.972,337.131
523.177,337.433
523.383,337.985
523.588,338.178
523.794,338.198
523.999,338.223
524.205,338.679
524.41,338.952
524.615,338.841
524.821,339.096
525.026,339.203
525.232,339.317
525.437,339.653
525.642,339.919
525.847,340.19
526.053,340.262
526.258,340.443
526.463,340.661
526.669,340.892
526.874,340.755
527.079,340.336
527.284,340.649
527.49,340.605
527.695,340.397
527.9,340.471
528.105,340.261
528.31,340.219
528.515,340.228
528.721,340.348
528.926,340.199
529.131,340.097
529.336,340.245
529.541,340.473
529.746,340.515
529.951,340.435
530.156,340.533
530.361,340.257
530.566,340.253
530.771,340.366
530.976,340.261
531.181,340.438
531.386,340.324
531.591,340.081
531.796,340.17
532.001,340.147
532.206,339.851
532.411,339.802
532.616,339.79
532.821,339.677
533.025,339.321
533.23,338.894
533.435,338.784
533.64,338.569
533.845,338.253
534.05,338.262
534.254,337.957
534.459,337.722
534.664,337.417
534.869,337.525
535.073,337.288
535.278,336.854
535.483,336.625
535.688,336.467
535.892,336.276
536.097,336.18
536.302,335.731
536.506,335.641
536.711,335.575
536.916,335.2
537.12,335.053
537.325,335.106
537.529,334.885
537.734,334.801
537.938,335.562
538.143,335.719
538.348,335.527
538.552,335.041
538.757,334.966
538.961,335.039
539.166,334.933
539.37,334.913
539.575,334.587
539.779,334.255
539.983,334.097
540.188,333.614
540.392,333.335
540.597,333.213
540.801,332.957
541.005,332.711
541.21,332.033
541.414,331.88
541.618,331.741
541.823,331.538
542.027,331.297
542.231,331.183
542.436,330.66
542.64,330.582
542.844,329.881
543.048,329.312
543.253,329.033
543.457,328.492
543.661,328.176
543.865,327.965
544.069,327.429
544.274,327.13
544.478,326.752
544.682,326.705
544.886,326.466
545.09,326.602
545.294,326.248
545.498,326.238
545.702,325.842
545.907,325.105
546.111,324.811
546.315,324.53
546.519,324.262
546.723,323.754
546.927,323.718
547.131,323.463
547.335,322.9
547.539,322.948
547.743,322.701
547.947,322.52
548.15,322.011
548.354,321.729
548.558,321.344
548.762,320.803
548.966,320.104
549.17,319.785
549.374,319.383
549.578,318.971
549.781,318.726
549.985,318.479
550.189,318.403
550.393,318.306
550.597,317.959
550.8,317.558
551.004,317.41
551.208,317.285
551.412,317.069
551.615,316.743
551.819,316.562
552.023,316.242
552.226,315.726
552.43,315.203
552.634,314.696
552.837,314.465
553.041,313.898
553.244,313.52
553.448,313.391
553.652,313.089
553.855,312.742
554.059,312.592
554.262,312.342
554.466,312.149
554.669,311.903
554.873,311.739
555.076,311.537
555.28,311.196
555.483,310.77
555.687,310.315
555.89,309.884
556.094,309.258
556.297,308.795
556.5,308.442
556.704,307.943
556.907,307.746
557.111,307.495
557.314,307.025
557.517,306.979
557.721,306.715
557.924,306.518
558.127,306.069
558.33,305.735
558.534,305.473
558.737,305.012
558.94,304.393
559.144,304.131
559.347,303.921
559.55,303.475
559.753,303.163
559.956,302.662
560.159,302.323
560.363,302.424
560.566,302.225
560.769,302.007
560.972,301.616
561.175,301.297
561.378,301.229
561.581,300.755
561.784,300.524
561.987,300.111
562.19,299.556
562.394,299.266
562.597,299.457
562.8,298.945
563.003,298.644
563.205,298.328
563.408,298.315
563.611,298.178
563.814,298.303
564.017,298.374
564.22,297.936
564.423,297.48
564.626,297.327
564.829,297.215
565.032,297.361
565.235,296.913
565.437,296.835
565.64,296.508
565.843,296.615
566.046,296.612
566.249,296.571
566.451,296.129
566.654,296.224
566.857,296.262
567.06,296.226
567.262,296.465
567.465,296.781
567.668,296.907
567.87,296.797
568.073,296.945
568.276,296.814
568.478,296.996
568.681,297.327
568.884,297.292
569.086,297.746
569.289,297.821
569.491,298.239
569.694,298.295
569.896,298.63
570.099,299.113
570.301,299.089
570.504,299.202
570.706,299.278
570.909,299.477
571.111,299.731
571.314,300.349
571.516,300.585
571.719,300.787
571.921,301.072
572.124,301.348
572.326,301.648
572.528,302.085
572.731,302.423
572.933,302.869
573.135,303.572
573.338,303.816
573.54,303.996
573.742,304.228
573.945,304.973
574.147,305.47
574.349,305.905
574.551,306.229
574.754,306.74
574.956,307.303
575.158,307.508
575.36,308.328
575.562,308.988
575.765,309.207
575.967,309.65
576.169,310.638
576.371,311.135
576.573,311.732
576.775,311.999
576.977,312.378
577.179,312.933
577.382,313.28
577.584,313.766
577.786,314.334
577.988,315.08
578.19,315.367
578.392,316.086
578.594,316.791
578.796,316.885
578.998,317.296
579.2,317.718
579.401,318.467
579.603,319.094
579.805,319.533
580.007,319.972
580.209,320.069
580.411,321.146
580.613,321.966
580.815,322.717
581.016,323.323
581.218,324.128
581.42,324.713
581.622,325.501
581.824,326.526
582.025,327.732
582.227,328.672
582.429,329.116
582.631,329.668
582.832,330.371
583.034,331.118
583.236,331.845
583.437,332.578
583.639,333.461
583.841,334.073
584.042,335.084
584.244,335.882
584.446,336.863
584.647,337.634
584.849,338.37
585.05,339.046
585.252,339.703
585.453,340.294
585.655,341.169
585.856,341.723
586.058,342.429
586.259,343.179
586.461,343.97
586.662,344.971
586.864,345.905
587.065,346.991
587.267,347.758
587.468,348.761
587.67,349.776
587.871,350.47
588.072,351.249
588.274,352.116
588.475,353.224
588.676,353.848
588.878,354.685
589.079,355.777
589.28,356.612
589.481,357.406
589.683,358.262
589.884,359.304
590.085,360.304
590.286,361.396
590.488,362.307
590.689,363.14
590.89,363.884
591.091,364.485
591.292,365.518
591.494,366.349
591.695,367.162
591.896,367.995
592.097,368.883
592.298,369.624
592.499,370.452
592.7,371.508
592.901,372.589
593.102,373.859
593.303,375.051
593.504,375.911
593.705,377.12
593.906,378.157
594.107,379.285
594.308,380.016
594.509,380.84
594.71,381.602
594.911,382.632
595.112,383.433
595.313,384.345
595.514,385.285
595.715,386.114
595.915,387.045
596.116,387.821
596.317,389.056
596.518,390.163
596.719,391.177
596.92,392.314
597.12,393.382
597.321,394.474
597.522,395.63
597.723,396.537
597.923,397.644
598.124,398.28
598.325,399.498
598.525,399.959
598.726,401.022
598.927,402.035
599.127,402.867
599.328,403.944
599.529,404.976
599.729,405.688
599.93,406.67
600.13,407.523
600.331,408.089
600.531,409.042
600.732,409.89
600.933,410.456
601.133,411.23
601.334,412.147
601.534,412.825
601.734,413.507
601.935,414.273
602.135,414.934
602.336,415.587
602.536,416.297
602.737,417.167
602.937,417.94
603.137,418.209
603.338,418.747
603.538,419.409
603.738,420.286
603.939,421.092
604.139,421.784
604.339,422.392
604.54,422.935
604.74,423.925
604.94,424.619
605.14,425.279
605.341,425.864
605.541,426.558
605.741,427.109
605.941,427.464
606.141,428.29
606.342,428.768
606.542,429.454
606.742,429.96
606.942,430.793
607.142,431.414
607.342,432.05
607.542,432.486
607.742,432.793
607.942,432.936
608.142,433.393
608.343,434.174
608.543,434.788
608.743,435.413
608.943,435.811
609.143,436.289
609.342,436.965
609.542,437.335
609.742,437.968
609.942,438.247
610.142,438.556
610.342,439.011
610.542,439.199
610.742,439.899
610.942,440.274
611.142,440.892
611.341,441.322
611.541,441.553
611.741,441.495
611.941,441.885
612.141,442.185
612.34,442.606
612.54,442.965
612.74,443.581
612.94,443.754
613.139,444.219
613.339,444.227
613.539,444.518
613.738,444.747
613.938,445.229
614.138,445.746
614.337,445.829
614.537,446.21
614.736,446.383
614.936,447.078
615.136,447.248
615.335,447.291
615.535,447.675
615.734,447.999
615.934,448.335
616.133,448.541
616.333,449.073
616.532,449.295
616.732,449.833
616.931,450.099
617.131,450.891
617.33,451.507
617.529,451.994
617.729,452.395
617.928,452.729
618.128,453.004
618.327,453.001
618.526,453.2
618.726,453.548
618.925,453.856
619.124,454.063
619.324,454.354
619.523,454.881
619.722,455.203
619.921,455.552
620.121,455.649
620.32,456.329
620.519,456.781
620.718,456.723
620.917,456.803
621.117,457.024
621.316,457.362
621.515,457.4
621.714,457.825
621.913,457.812
622.112,458.167
622.311,457.983
622.51,458.245
622.709,458.63
622.909,459.136
623.108,459.736
623.307,459.644
623.506,460.087
623.705,460.345
623.904,460.475
624.103,460.686
624.301,460.819
624.5,461.122
624.699,461.506
624.898,461.627
625.097,461.978
625.296,462.391
625.495,462.786
625.694,462.941
625.893,463.416
626.091,463.721
626.29,464.431
626.489,464.41
626.688,464.699
626.887,464.797
627.085,465.07
627.284,464.819
627.483,465.191
627.682,465.254
627.88,464.845
628.079,465.277
628.278,465.806
628.476,465.908
628.675,465.96
628.874,466.224
629.072,466.35
629.271,466.605
629.47,466.997
629.668,467.251
629.867,467.491
630.065,467.565
630.264,467.877
630.462,468.022
630.661,468.301
630.859,468.724
631.058,469.317
631.256,469.834
631.455,470.622
631.653,471.177
631.852,471.598
632.05,471.637
632.249,471.871
632.447,472.533
632.645,473.034
632.844,473.254
633.042,473.564
633.24,473.733
633.439,474.084
633.637,474.38
633.835,474.554
634.034,474.894
634.232,474.992
634.43,475.616
634.628,476.115
634.827,476.521
635.025,476.877
635.223,477.452
635.421,477.625
635.62,477.77
635.818,478.158
636.016,478.387
636.214,478.79
636.412,478.847
636.61,479.073
636.808,479.449
637.006,479.651
637.205,480.005
637.403,480.64
637.601,480.521
637.799,480.783
637.997,481.135
638.195,481.571
638.393,481.48
638.591,482.078
638.789,482.398
638.987,482.887
639.184,483.184
639.382,483.549
639.58,483.897
639.778,484.228
639.976,484.437
640.174,484.894
640.372,485.907
640.57,486.268
640.767,486.664
640.965,486.869
641.163,487.195
641.361,487.761
641.559,488.504
641.756,489.197
641.954,489.374
642.152,490.143
642.35,490.715
642.547,490.967
642.745,491.431
642.943,492.164
643.14,492.756
643.338,493.451
643.536,494.192
643.733,494.459
643.931,494.722
644.128,495.069
644.326,495.439
644.524,495.968
644.721,496.118
644.919,496.773
645.116,497.261
645.314,497.799
645.511,498.002
645.709,498.505
645.906,499.339
646.104,500.003
646.301,500.79
646.498,501.004
646.696,501.541
646.893,501.854
647.091,502.056
647.288,502.316
647.485,502.908
647.683,503.465
647.88,504.09
648.077,504.758
648.275,505.19
648.472,505.608
648.669,506.057
648.867,506.638
649.064,507.198
649.261,507.992
649.458,508.52
649.655,509.056
649.853,509.495
650.05,510.039
650.247,510.859
650.444,511.718
650.641,512
650.838,512.826
651.036,513.415
651.233,513.859
651.43,514.252
651.627,515.132
651.824,515.561
652.021,516.192
652.218,516.724
652.415,517.234
652.612,517.42
652.809,518.211
653.006,518.516
653.203,519.297
653.4,519.929
653.597,520.675
653.794,521.388
653.991,522.04
654.187,522.721
654.384,523.048
654.581,523.644
654.778,523.933
654.975,524.455
655.172,525.093
655.369,525.562
655.565,525.797
655.762,526.124
655.959,526.774
656.156,527.079
656.352,527.118
656.549,527.803
656.746,528.09
656.943,528.3
657.139,528.745
657.336,529.398
657.533,529.884
657.729,530.16
657.926,530.7
658.122,531.654
658.319,532.397
658.516,532.857
658.712,533.473
658.909,534.009
659.105,534.445
659.302,534.874
659.498,535.352
659.695,535.617
659.891,535.981
660.088,536.283
660.284,536.881
660.481,537.473
660.677,538.156
660.874,538.538
661.07,538.948
661.266,539.469
661.463,539.651
661.659,540.091
661.856,540.268
662.052,540.807
662.248,540.859
662.444,541.294
662.641,541.555
662.837,541.958
663.033,542.664
663.23,542.872
663.426,543.018
663.622,543.574
663.818,543.949
664.014,544.429
664.211,544.808
664.407,545.115
664.603,545.552
664.799,545.989
664.995,546.314
665.191,546.536
665.387,546.874
665.584,546.999
665.78,547.297
665.976,547.349
666.172,547.692
666.368,547.999
666.564,548.377
666.76,548.93
666.956,549.491
667.152,549.618
667.348,550.206
667.544,550.779
667.74,550.931
667.936,550.881
668.131,551.019
668.327,551.083
668.523,551.639
668.719,552.11
668.915,551.962
669.111,552.137
669.307,552.498
669.502,552.916
669.698,553.191
669.894,553.374
670.09,553.662
670.285,553.669
670.481,553.88
670.677,553.852
670.873,553.704
671.068,553.143
671.264,553.282
671.46,553.36
671.655,553.292
671.851,553.545
672.047,553.536
672.242,553.336
672.438,553.325
672.633,553.497
672.829,553.337
673.025,553.241
673.22,553.139
673.416,553.008
673.611,553.177
673.807,553.213
674.002,552.997
674.198,553.051
674.393,553.152
674.589,552.957
674.784,552.797
674.979,552.875
675.175,552.769
675.37,552.54
675.566,552.699
675.761,552.551
675.956,552.364
676.152,552.308
676.347,552.254
676.542,552.365
676.738,552.321
676.933,551.856
677.128,552.043
677.323,552.24
677.519,552.067
677.714,552.179
677.909,552.258
678.104,552.354
678.299,552.373
678.494,552.103
678.69,551.882
678.885,551.684
679.08,551.518
679.275,551.681
679.47,551.233
679.665,550.973
679.86,550.295
680.055,550.028
680.25,549.783
680.445,549.698
680.64,549.529
680.835,549.015
681.03,548.633
681.225,548.478
681.42,548.64
681.615,548.139
681.81,547.672
682.005,547.704
682.2,547.435
682.395,546.994
682.59,546.836
682.785,546.562
682.979,546.068
683.174,545.946
683.369,545.344
683.564,545.015
683.759,544.412
683.953,544.106
684.148,543.898
684.343,543.27
684.538,543.094
684.732,542.343
684.927,542.178
685.122,542.066
685.316,541.636
685.511,540.962
685.706,540.328
685.9,540.352
686.095,539.982
686.29,539.408
686.484,539.173
686.679,538.665
686.873,538.382
687.068,537.745
687.262,537.368
687.457,536.677
687.651,536.198
687.846,535.711
688.04,535.6
688.235,534.981
688.429,534.461
688.624,533.547
688.818,533.061
689.013,532.471
689.207,531.971
689.401,531.534
689.596,530.758
689.79,530.214
689.984,529.825
690.179,529.149
690.373,528.623
690.567,527.996
690.762,527.71
690.956,527.16
691.15,526.639
691.344,525.9
691.538,525.379
691.733,524.75
691.927,524.428
692.121,523.596
692.315,523.13
692.509,522.555
692.703,521.919
692.898,521.264
693.092,520.833
693.286,520.107
693.48,519.461
693.674,519.043
693.868,518.541
694.062,518.223
694.256,517.565
694.45,516.97
694.644,516.742
694.838,516.26
695.032,515.905
695.226,515.328
695.42,514.747
695.614,514.546
695.808,513.959
696.002,513.551
696.195,513.042
696.389,512.285
696.583,511.704
696.777,511.32
696.971,510.827
697.165,510.342
697.358,509.407
697.552,508.595
697.746,507.953
697.94,507.458
698.133,507.166
698.327,506.546
698.521,506.225
698.715,505.456
698.908,504.837
699.102,504.532
699.296,504.083
699.489,503.52
699.683,502.668
699.876,502.108
700.07,501.667
700.264,501.217
700.457,500.762
700.651,500.368
700.844,500.146
701.038,499.73
701.231,499.331
701.425,498.935
701.618,498.558
701.812,498.087
702.005,497.443
702.199,496.989
702.392,496.702
702.586,496.673
702.779,496.101
702.972,495.812
703.166,495.459
703.359,495.137
703.552,494.514
703.746,494.062
703.939,493.73
704.132,493.205
704.326,492.952
704.519,492.608
704.712,492.25
704.905,491.935
705.099,491.521
705.292,491.174
705.485,491.1
705.678,490.497
705.871,489.843
706.064,489.425
706.258,488.962
706.451,488.365
706.644,488.079
706.837,487.965
707.03,487.844
707.223,487.614
707.416,487.348
707.609,486.649
707.802,486.474
707.995,486.343
708.188,486.038
708.381,485.638
708.574,485.497
708.767,484.963
708.96,484.457
709.153,484.294
709.346,484.329
709.539,483.757
709.732,483.487
709.924,483.372
710.117,483.471
710.31,482.921
710.503,482.722
710.696,482.837
710.889,482.609
711.081,482.462
711.274,482.387
711.467,482.336
711.66,482.042
711.852,481.869
712.045,481.874
712.238,481.797
712.43,481.835
712.623,481.394
712.816,481.061
713.008,481.221
713.201,481.182
713.394,480.904
713.586,480.923
713.779,480.886
713.971,481.064
714.164,481.069
714.356,480.948
714.549,481.031
714.741,481.202
714.934,481.405
715.126,481.588
715.319,481.608
715.511,481.428
715.704,481.261
715.896,481.569
716.088,481.533
716.281,481.384
716.473,481.633
716.666,481.491
716.858,481.419
717.05,481.323
717.243,481.418
717.435,481.716
717.627,481.931
717.819,482.249
718.012,482.514
718.204,482.747
718.396,483.319
718.588,483.633
718.781,483.952
718.973,484.472
719.165,484.656
719.357,484.97
719.549,485.111
719.741,485.301
719.934,485.372
720.126,485.617
720.318,485.817
720.51,486.068
720.702,486.52
720.894,486.884
721.086,487.741
721.278,487.96
721.47,488.388
721.662,488.755
721.854,489.714
722.046,490.134
722.238,490.803
722.43,491.359
722.622,492.176
722.814,492.447
723.005,492.979
723.197,493.583
723.389,493.888
723.581,494.94
723.773,495.464
723.965,496.238
724.156,496.862
724.348,497.594
724.54,498.305
724.732,498.833
724.923,499.472
725.115,500.407
725.307,501.216
725.499,502.236
725.69,502.895
725.882,504.094
726.074,504.951
726.265,506.206
726.457,506.906
726.648,507.959
726.84,508.701
727.032,509.889
727.223,510.898
727.415,511.997
727.606,513.304
727.798,514.427
727.989,515.444
728.181,516.512
728.372,517.974
728.564,519.045
728.755,520.395
728.947,521.487
729.138,522.638
729.329,524.07
729.521,525.425
729.712,526.589
729.904,528.049
730.095,529.628
730.286,531.229
730.478,532.655
730.669,534.218
730.86,536.155
731.051,537.622
731.243,539.045
731.434,540.87
731.625,542.89
731.816,544.393
732.008,546.369
732.199,548.328
732.39,550.301
732.581,551.905
732.772,553.472
732.963,555.519
733.154,557.38
733.346,559.124
733.537,560.964
733.728,562.719
733.919,564.807
734.11,567.152
734.301,569.001
734.492,571.098
734.683,573.115
734.874,575.333
735.065,577.636
735.256,579.719
735.447,582.042
735.638,584.669
735.829,586.987
736.019,589.442
736.21,592.224
736.401,594.74
736.592,597.426
736.783,600.022
736.974,603.081
737.164,605.409
737.355,608.541
737.546,611.35
737.737,614.15
737.928,616.603
738.118,619.492
738.309,622.745
738.5,625.773
738.69,628.589
738.881,631.756
739.072,634.738
739.262,637.897
739.453,641.082
739.644,644.162
739.834,647.235
740.025,650.846
740.215,654.281
740.406,657.854
740.596,661.294
740.787,664.746
740.978,668.326
741.168,671.944
741.358,675.555
741.549,679.443
741.739,682.846
741.93,686.58
742.12,690.306
742.311,694.182
742.501,697.877
742.691,701.73
742.882,705.963
743.072,709.798
743.263,713.741
743.453,717.649
743.643,721.727
743.833,725.996
744.024,729.775
744.214,734.195
744.404,738.257
744.594,742.566
744.785,746.976
744.975,751.42
745.165,755.816
745.355,759.859
745.545,764.107
745.736,768.568
745.926,772.938
746.116,777.638
746.306,782.072
746.496,786.52
746.686,791.093
746.876,795.565
747.066,799.941
747.256,805.08
747.446,809.918
747.636,814.607
747.826,819.25
748.016,824.186
748.206,829.07
748.396,833.978
748.586,838.687
748.776,843.861
748.966,848.751
749.156,853.787
749.346,858.805
749.535,863.774
749.725,868.868
749.915,873.947
750.105,879.082
750.295,884.382
750.484,889.337
750.674,894.69
750.864,899.697
751.054,905.259
751.243,910.421
751.433,915.714
751.623,920.824
751.812,926.115
752.002,931.384
752.192,936.668
752.381,941.705
752.571,947.02
752.761,952.7
752.95,957.945
753.14,963.074
753.329,968.453
753.519,973.635
753.708,979.476
753.898,984.919
754.087,990.178
754.277,995.369
754.466,1001.07
754.656,1006.51
754.845,1011.92
755.035,1017.46
755.224,1023.3
755.413,1029.04
755.603,1034.47
755.792,1039.79
755.982,1045.43
756.171,1050.74
756.36,1056.31
756.549,1061.49
756.739,1067.1
756.928,1072.98
757.117,1078.58
757.307,1084.14
757.496,1089.73
757.685,1095.22
757.874,1100.97
758.063,1106.65
758.253,1112.27
758.442,1117.57
758.631,1122.93
758.82,1128.77
759.009,1134.26
759.198,1139.74
759.387,1144.96
759.576,1150.63
759.765,1156.11
759.954,1161.63
760.143,1166.67
760.332,1171.85
760.521,1177.58
760.71,1182.81
760.899,1188.17
761.088,1193.67
761.277,1199.23
761.466,1204.29
761.655,1209.82
761.844,1215.13
762.033,1220.95
762.222,1225.94
762.411,1231.03
762.599,1236.41
762.788,1241.72
762.977,1246.81
763.166,1252.24
763.355,1257.55
763.543,1262.86
763.732,1268.52
763.921,1273.79
764.109,1278.82
764.298,1283.73
764.487,1288.7
764.675,1294.04
764.864,1298.98
765.053,1304.06
765.241,1308.78
765.43,1313.3
765.619,1318.12
765.807,1322.96
765.996,1327.39
766.184,1332.44
766.373,1337.53
766.561,1342.08
766.75,1346.87
766.938,1351.48
767.127,1356.47
767.315,1361.29
767.504,1365.86
767.692,1370.51
767.881,1375.23
768.069,1379.95
768.257,1384.23
768.446,1388.57
768.634,1393.29
768.822,1397.4
769.011,1401.77
769.199,1406.19
769.387,1410.63
769.576,1414.63
769.764,1418.44
769.952,1422.47
770.14,1426.44
770.328,1430.3
770.517,1434.44
770.705,1438.71
770.893,1442.74
771.081,1446.7
771.269,1450.38
771.457,1454.29
771.646,1458.2
771.834,1462.41
772.022,1466.24
772.21,1469.54
772.398,1473.29
772.586,1476.88
772.774,1480.66
772.962,1484.03
773.15,1487.55
773.338,1490.98
773.526,1494.2
773.714,1497.54
773.902,1501.11
774.09,1504.74
774.278,1507.76
774.465,1510.96
774.653,1513.83
774.841,1516.7
775.029,1519.17
775.217,1522.25
775.405,1524.83
775.592,1527.65
775.78,1530.39
775.968,1533.41
776.156,1535.81
776.343,1538.19
776.531,1540.65
776.719,1543.23
776.907,1545.54
777.094,1547.87
777.282,1549.96
777.47,1552.22
777.657,1554.64
777.845,1556.94
778.032,1559.11
778.22,1561.06
778.408,1562.82
778.595,1564.63
778.783,1566.61
778.97,1568.29
779.158,1569.65
779.345,1571.31
779.533,1572.96
779.72,1574.7
779.908,1576
780.095,1577.42
780.282,1578.8
780.47,1580.11
780.657,1581.44
780.845,1582.25
781.032,1583.52
781.219,1584.77
781.407,1585.95
781.594,1586.96
781.781,1587.64
781.969,1588.51
782.156,1589.22
782.343,1590.18
782.53,1591.07
782.718,1591.96
782.905,1592.8
783.092,1593.33
783.279,1594.07
783.466,1594.66
783.653,1595.27
783.841,1596.29
784.028,1596.48
784.215,1596.99
784.402,1597.51
784.589,1597.82
784.776,1598.21
784.963,1598.56
785.15,1598.5
785.337,1598.76
785.524,1598.68
785.711,1598.6
785.898,1599.04
786.085,1598.97
786.272,1598.79
786.459,1598.79
786.646,1598.81
786.833,1598.66
787.02,1598.39
787.206,1598.37
787.393,1598.31
787.58,1597.97
787.767,1597.62
787.954,1597.18
788.14,1596.89
788.327,1596.72
788.514,1596.16
788.701,1595.73
788.887,1594.89
789.074,1594.83
789.261,1594.24
789.448,1593.57
789.634,1593.34
789.821,1592.78
790.008,1592.2
790.194,1591.83
790.381,1591.74
790.567,1591.12
790.754,1590.67
790.94,1590.42
791.127,1589.67
791.314,1589.33
791.5,1588.17
791.687,1587.7
791.873,1587.37
792.059,1587.04
792.246,1586.15
792.432,1585.5
792.619,1584.83
792.805,1584.27
792.992,1583.01
793.178,1581.96
793.364,1581.48
793.551,1580.98
793.737,1580.13
793.923,1579.55
794.11,1579.02
794.296,1578.78
794.482,1577.82
794.668,1576.68
794.855,1575.84
795.041,1575.04
795.227,1574.32
795.413,1573.65
795.599,1572.93
795.786,1572.09
795.972,1571.14
796.158,1570.49
796.344,1569.82
796.53,1569.31
796.716,1568.13
796.902,1567.41
797.088,1566.51
797.274,1565.49
797.46,1564.63
797.646,1563.73
797.832,1563.18
798.018,1562.61
798.204,1561.55
798.39,1560.81
798.576,1559.77
798.762,1559.13
798.948,1558.07
799.134,1557.87
799.32,1556.82
799.506,1556.11
799.692,1555.14
799.877,1554.58
800.063,1554.03
800.249,1553.38
800.435,1552.49
800.621,1551.82
800.806,1550.98
800.992,1549.96
801.178,1548.83
801.363,1547.31
801.549,1546.45
801.735,1545.73
801.92,1545.11
802.106,1544.36
802.292,1543.4
802.477,1542.5
802.663,1541.57
802.849,1540.77
803.034,1540.6
803.22,1540.1
803.405,1539.1
803.591,1538.96
803.776,1537.99
803.962,1537.21
804.147,1536.58
804.333,1535.75
804.518,1535.02
804.703,1534.1
804.889,1533.13
805.074,1532.61
805.26,1531.69
805.445,1530.88
805.63,1529.8
805.816,1529.68
806.001,1528.88
806.186,1528.13
806.372,1527.59
806.557,1526.71
806.742,1525.97
806.927,1525.53
807.113,1525.14
807.298,1524.47
807.483,1523.72
807.668,1523.06
807.853,1522.43
808.039,1521.59
808.224,1520.73
808.409,1520.12
808.594,1519.24
808.779,1518.78
808.964,1517.84
809.149,1517.03
809.334,1515.89
809.519,1515.12
809.704,1514.42
809.889,1513.64
810.074,1512.9
810.259,1512.37
810.444,1511.75
810.629,1510.9
810.814,1510.12
810.999,1509.52
811.184,1508.49
811.369,1507.59
811.554,1506.6
811.738,1505.99
811.923,1505.05
812.108,1504.1
812.293,1503.11
812.478,1502.81
812.662,1501.95
812.847,1501.15
813.032,1500.45
813.217,1499.64
813.401,1498.71
813.586,1498.23
813.771,1497.5
813.955,1496.56
814.14,1495.86
814.325,1494.95
814.509,1494.07
814.694,1493.45
814.878,1492.83
815.063,1491.96
815.248,1491
815.432,1489.9
815.617,1489.25
815.801,1488.8
815.986,1488.16
816.17,1487.23
816.355,1486.72
816.539,1486.1
816.723,1485.43
816.908,1484.48
817.092,1483.7
817.277,1482.95
817.461,1482.55
817.645,1481.76
817.83,1480.89
818.014,1480.18
818.198,1479.54
818.383,1478.89
818.567,1478.07
818.751,1477.12
818.935,1476.26
819.12,1475.85
819.304,1475.13
819.488,1474.49
819.672,1473.66
819.856,1472.61
820.041,1471.76
820.225,1470.72
820.409,1469.98
820.593,1469.35
820.777,1468.88
820.961,1468.05
821.145,1466.86
821.329,1466.37
821.513,1465.57
821.697,1464.65
821.881,1463.85
822.065,1463.18
822.249,1462.38
822.433,1461.49
822.617,1460.79
822.801,1460.11
822.985,1459.58
823.169,1458.53
823.353,1457.72
823.536,1457.35
823.72,1456.59
823.904,1455.58
824.088,1454.9
824.272,1453.91
824.456,1452.9
824.639,1452.01
824.823,1451.1
825.007,1449.94
825.19,1449.18
825.374,1448.32
825.558,1447.51
825.742,1446.55
825.925,1445.7
826.109,1445.08
826.292,1443.7
826.476,1442.68
826.66,1441.82
826.843,1440.56
827.027,1439.63
827.21,1438.79
827.394,1437.59
827.577,1436.05
827.761,1434.92
827.944,1433.57
828.128,1432.26
828.311,1431.08
828.495,1429.53
828.678,1428.19
828.862,1426.72
829.045,1425.52
829.228,1424.14
829.412,1422.87
829.595,1421.49
829.778,1420.46
829.962,1419.08
830.145,1417.94
830.328,1416.91
830.512,1415.28
830.695,1413.47
830.878,1412.04
831.061,1410.4
831.244,1408.76
831.428,1406.81
831.611,1405.28
831.794,1403.82
831.977,1402.29
832.16,1400.69
832.343,1399.12
832.526,1397.66
832.709,1395.92
832.893,1394.34
833.076,1392.87
833.259,1391.31
833.442,1389.77
833.625,1387.65
833.808,1386.32
833.991,1384.52
834.174,1383.09
834.356,1381.63
834.539,1379.82
834.722,1378.37
834.905,1376.41
835.088,1374.76
835.271,1373.08
835.454,1371.67
835.637,1370.09
835.819,1368.4
836.002,1366.71
836.185,1364.84
836.368,1363.55
836.551,1361.66
836.733,1359.57
836.916,1357.58
837.099,1355.47
837.281,1353.5
837.464,1351.9
837.647,1350.04
837.829,1348.18
838.012,1346.32
838.195,1344.54
838.377,1342.67
838.56,1340.79
838.742,1338.62
838.925,1336.79
839.107,1334.62
839.29,1332.77
839.472,1330.8
839.655,1328.93
839.837,1326.95
840.02,1324.75
840.202,1322.64
840.385,1320.86
840.567,1318.59
840.749,1316.91
840.932,1315.03
841.114,1312.9
841.297,1310.85
841.479,1308.9
841.661,1306.85
841.843,1304.93
842.026,1302.82
842.208,1300.98
842.39,1299.04
842.572,1297.26
842.755,1294.81
842.937,1292.84
843.119,1290.62
843.301,1288.37
843.483,1286.34
843.666,1284.47
843.848,1282.22
844.03,1279.73
844.212,1277.84
844.394,1275.91
844.576,1273.62
844.758,1271.4
844.94,1269.28
845.122,1267.37
845.304,1265.55
845.486,1263.73
845.668,1261.69
845.85,1259.63
846.032,1257.59
846.214,1255.76
846.396,1253.55
846.578,1251.33
846.759,1249.22
846.941,1246.96
847.123,1244.55
847.305,1242.37
847.487,1240.44
847.669,1238.38
847.85,1236.13
848.032,1234.05
848.214,1231.81
848.396,1229.53
848.577,1227.24
848.759,1225.41
848.941,1223.39
849.122,1221.45
849.304,1219.11
849.486,1217.29
849.667,1215.42
849.849,1213.27
850.03,1211.46
850.212,1209.52
850.394,1207.22
850.575,1204.94
850.757,1203.09
850.938,1201.1
851.12,1199.26
851.301,1197.56
851.483,1195.63
851.664,1193.46
851.845,1191.4
852.027,1189.55
852.208,1187.67
852.39,1185.57
852.571,1183.57
852.752,1181.59
852.934,1180
853.115,1177.99
853.296,1176.2
853.478,1174.63
853.659,1172.6
853.84,1170.73
854.021,1168.86
854.203,1166.78
854.384,1165.1
854.565,1163.39
854.746,1161.49
854.927,1159.72
855.108,1158.01
855.29,1156.48
855.471,1154.68
855.652,1153.2
855.833,1151.43
856.014,1149.85
856.195,1147.94
856.376,1146.42
856.557,1145.05
856.738,1143.5
856.919,1141.94
857.1,1140.19
857.281,1138.36
857.462,1136.66
857.643,1134.75
857.824,1133.12
858.005,1131.38
858.185,1129.71
858.366,1128.32
858.547,1126.79
858.728,1125.2
858.909,1123.7
859.09,1122.31
859.27,1120.82
859.451,1119.55
859.632,1117.89
859.813,1116.27
859.993,1114.77
860.174,1113.45
860.355,1111.92
860.535,1110.34
860.716,1108.64
860.897,1107.26
861.077,1105.83
861.258,1104.27
861.438,1102.99
861.619,1102.02
861.8,1100.65
861.98,1099.02
862.161,1097.37
862.341,1096.34
862.522,1095.2
862.702,1093.58
862.883,1092.65
863.063,1091.4
863.243,1090.21
863.424,1089.06
863.604,1087.63
863.785,1085.98
863.965,1084.91
864.145,1083.83
864.326,1082.5
864.506,1081.29
864.686,1080.25
864.867,1079.19
865.047,1078.06
865.227,1077.1
865.407,1076.16
865.588,1074.96
865.768,1073.63
865.948,1072.2
866.128,1071.1
866.308,1069.7
866.488,1068.91
866.669,1068.02
866.849,1066.73
867.029,1065.92
867.209,1064.91
867.389,1063.86
867.569,1063.01
867.749,1061.73
867.929,1060.98
868.109,1059.93
868.289,1059.07
868.469,1057.87
868.649,1056.95
868.829,1055.81
869.009,1054.67
869.189,1053.64
869.369,1052.67
869.548,1051.5
869.728,1050.59
869.908,1049.49
870.088,1048.38
870.268,1047.53
870.448,1046.66
870.627,1045.44
870.807,1044.63
870.987,1043.82
871.167,1042.78
871.346,1041.88
871.526,1040.66
871.706,1039.76
871.885,1038.68
872.065,1037.69
872.245,1036.52
872.424,1035.56
872.604,1034.7
872.783,1033.4
872.963,1032.4
873.142,1031.5
873.322,1030.92
873.501,1030.07
873.681,1029.03
873.86,1027.84
874.04,1027.01
874.219,1026.18
874.399,1025.45
874.578,1024.46
874.758,1023.83
874.937,1022.86
875.116,1022.25
875.296,1021.09
875.475,1020.48
875.654,1019.56
875.834,1018.84
876.013,1017.7
876.192,1017.03
876.372,1016.24
876.551,1015.37
876.73,1014.56
876.909,1013.99
877.088,1012.99
877.268,1012.17
877.447,1011.16
877.626,1010.45
877.805,1009.31
877.984,1008.72
878.163,1008.05
878.342,1007.16
878.521,1006.21
878.7,1005.11
878.879,1004.28
879.059,1003.62
879.238,1002.83
879.417,1001.81
879.595,1001.08
879.774,1000.27
879.953,999.181
880.132,998.255
880.311,997.373
880.49,996.507
880.669,995.456
880.848,994.659
881.027,993.863
881.205,992.921
881.384,991.77
881.563,990.567
881.742,989.514
881.921,988.575
882.099,988.037
882.278,987.231
882.457,986.28
882.635,985.477
882.814,984.807
882.993,984.079
883.171,983.296
883.35,982.344
883.529,981.703
883.707,980.971
883.886,980.541
884.064,979.826
884.243,979.024
884.422,978.081
884.6,977.331
884.779,976.761
884.957,975.539
885.136,974.709
885.314,973.701
885.492,973.038
885.671,972.067
885.849,971.076
886.028,970.271
886.206,969.044
886.384,968.094
886.563,967.166
886.741,966.702
886.919,965.754
887.098,964.889
887.276,963.82
887.454,963.047
887.632,962.085
887.811,961.015
887.989,959.975
888.167,959.036
888.345,958.31
888.523,957.347
888.702,956.383
888.88,955.421
889.058,954.15
889.236,953.181
889.414,952.177
889.592,950.966
889.77,949.959
889.948,948.99
890.126,948.11
890.304,947.058
890.482,946.084
890.66,945.036
890.838,944.039
891.016,942.903
891.194,941.799
891.372,940.459
891.55,939.516
891.728,938.09
891.905,936.952
892.083,935.596
892.261,934.563
892.439,933.568
892.617,932.271
892.794,930.883
892.972,929.615
893.15,928.661
893.328,927.746
893.505,926.277
893.683,925.381
893.861,924.232
894.038,923.224
894.216,922.204
894.394,921.033
894.571,919.823
894.749,918.693
894.926,917.333
895.104,916.024
895.281,914.669
895.459,913.068
895.637,911.912
895.814,910.678
895.992,909.606
896.169,907.806
896.346,906.387
896.524,905.153
896.701,903.918
896.879,902.552
897.056,901.05
897.233,899.685
897.411,898.52
897.588,896.951
897.765,895.269
897.943,893.816
898.12,892.594
898.297,891.115
898.475,889.271
898.652,888.189
898.829,886.589
899.006,884.987
899.183,883.168
899.361,881.583
899.538,880.037
899.715,878.735
899.892,877.365
900.069,875.831
900.246,874.306
900.423,872.773
900.6,870.839
900.777,869.458
900.954,867.96
901.131,866.378
901.308,864.495
901.485,862.844
901.662,861.329
901.839,859.952
902.016,858.27
902.193,856.532
902.37,854.698
902.547,853.029
902.724,851.579
902.9,849.739
903.077,848.126
903.254,846.551
903.431,844.936
903.608,843.372
903.784,841.49
903.961,839.894
904.138,837.913
904.315,836.515
904.491,834.597
904.668,833.005
904.845,831.365
905.021,829.51
905.198,827.916
905.375,826.225
905.551,824.568
905.728,822.83
905.904,821.213
906.081,819.4
906.257,817.456
906.434,815.791
906.61,813.758
906.787,811.946
906.963,810.089
907.14,808.354
907.316,806.407
907.493,804.512
907.669,802.609
907.845,800.889
908.022,799.348
908.198,797.562
908.374,795.554
908.551,793.693
908.727,792.26
908.903,790.526
909.08,788.579
909.256,786.848
909.432,785.281
909.608,783.602
909.785,781.739
909.961,779.833
910.137,777.987
910.313,776.477
910.489,774.762
910.665,772.973
910.841,770.95
911.018,769.419
911.194,767.315
911.37,765.609
911.546,763.67
911.722,761.997
911.898,760.212
912.074,758.32
912.25,756.293
912.426,754.314
912.602,752.468
912.777,750.642
912.953,748.953
913.129,747.547
913.305,745.797
913.481,744.06
913.657,742.239
913.833,740.332
914.008,738.64
914.184,736.803
914.36,735.335
914.536,733.468
914.712,731.43
914.887,729.667
915.063,727.907
915.239,726.45
915.414,724.572
915.59,722.844
915.766,721.148
915.941,719.794
916.117,717.82
916.292,716.373
916.468,714.864
916.644,713.229
916.819,711.563
916.995,710.259
917.17,708.555
917.346,706.999
917.521,705.369
917.697,703.412
917.872,701.674
918.048,700.007
918.223,698.145
918.398,696.727
918.574,694.978
918.749,693.648
918.924,692.009
919.1,690.099
919.275,688.222
919.45,686.215
919.626,684.531
919.801,682.796
919.976,681.127
920.151,679.596
920.327,677.684
920.502,676.139
920.677,674.488
920.852,672.95
921.027,671.005
921.202,669.327
921.378,667.656
921.553,665.952
921.728,664.492
921.903,662.903
922.078,661.278
922.253,659.314
922.428,657.803
922.603,656.332
922.778,654.888
922.953,653.212
923.128,651.563
923.303,650.047
923.478,648.955
923.652,647.653
923.827,645.909
924.002,644.26
924.177,642.514
924.352,640.841
924.527,639.265
924.702,637.601
924.876,635.886
925.051,634.28
925.226,632.728
925.401,630.949
925.575,629.439
925.75,628.217
925.925,626.478
926.099,624.806
926.274,623.319
926.449,621.927
926.623,620.47
926.798,618.87
926.972,617.507
927.147,616.274
927.322,614.637
927.496,613.347
927.671,611.895
927.845,610.287
928.02,608.543
928.194,607.226
928.368,605.67
928.543,603.886
928.717,602.139
928.892,600.645
929.066,598.941
929.24,597.4
929.415,595.614
929.589,594.094
929.763,592.365
929.938,590.793
930.112,589.31
930.286,587.877
930.461,586.529
930.635,584.877
930.809,583.408
930.983,581.805
931.157,580.281
931.332,578.69
931.506,577.439
931.68,576.021
931.854,574.726
932.028,573.203
932.202,571.741
932.376,570.576
932.55,569.083
932.724,567.176
932.898,565.733
933.072,564.538
933.246,563.487
933.42,561.777
933.594,560.104
933.768,558.781
933.942,557.08
934.116,555.647
934.29,554.21
934.464,553.104
934.638,551.792
934.811,550.505
934.985,549.033
935.159,547.347
935.333,545.896
935.507,544.499
935.68,542.917
935.854,541.615
936.028,540.092
936.201,538.828
936.375,537.783
936.549,536.619
936.722,535.355
936.896,533.982
937.07,532.505
937.243,531.469
937.417,530.377
937.59,528.904
937.764,527.464
937.938,526.046
938.111,524.649
938.285,523.504
938.458,521.984
938.631,520.754
938.805,519.488
938.978,518.394
939.152,517.1
939.325,516.1
939.499,514.817
939.672,513.546
939.845,512.249
940.019,510.871
940.192,509.752
940.365,508.242
940.538,507.081
940.712,505.807
940.885,504.688
941.058,503.681
941.231,502.629
941.405,501.539
941.578,500.16
941.751,498.974
941.924,497.781
942.097,496.419
942.27,495.202
942.443,494.397
942.617,493.205
942.79,492.182
942.963,490.971
943.136,489.751
943.309,488.524
943.482,487.287
943.655,486.349
943.828,484.992
944.001,483.767
944.173,482.613
944.346,481.489
944.519,480.119
944.692,479.004
944.865,477.739
945.038,476.825
945.211,475.554
945.383,474.235
945.556,472.924
945.729,471.879
945.902,470.801
946.075,469.554
946.247,468.547
946.42,467.474
946.593,466.384
946.765,465.25
946.938,464.02
947.111,463.093
947.283,462.182
947.456,460.891
947.628,459.489
947.801,458.777
947.974,457.225
948.146,455.87
948.319,454.534
948.491,453.863
948.664,452.649
948.836,451.508
949.009,450.447
949.181,449.382
949.353,448.171
949.526,447.039
949.698,446.039
949.871,445.007
950.043,443.89
950.215,442.599
950.388,441.483
950.56,440.784
950.732,439.686
950.904,438.502
951.077,437.682
951.249,436.626
951.421,435.436
951.593,434.495
951.766,433.546
951.938,432.624
952.11,431.649
952.282,430.611
952.454,429.465
952.626,428.765
952.798,427.888
952.97,426.775
953.142,425.834
953.314,424.453
953.487,423.35
953.659,422.221
953.83,421.238
954.002,420.17
954.174,419.105
954.346,417.961
954.518,416.89
954.69,415.933
954.862,415.162
955.034,414.143
955.206,413.313
955.378,412.377
955.549,411.376
955.721,410.077
955.893,409.115
956.065,408.041
956.236,407.337
956.408,406.494
956.58,405.369
956.752,404.319
956.923,403.566
957.095,402.642
957.267,401.648
957.438,400.415
957.61,399.274
957.781,398.165
957.953,397.105
958.125,396.119
958.296,394.847
958.468,393.687
958.639,392.735
958.811,391.963
958.982,391.298
959.154,390.405
959.325,389.379
959.496,388.398
959.668,387.388
959.839,386.462
960.011,385.624
960.182,384.933
960.353,383.852
960.525,382.519
960.696,381.398
960.867,380.773
961.038,379.87
961.21,379.141
961.381,377.917
961.552,377.119
961.723,376.043
961.895,374.904
962.066,373.749
962.237,372.926
962.408,371.953
962.579,370.985
962.75,370.198
962.921,369.438
963.092,368.778
963.263,367.821
963.434,366.848
963.605,365.833
963.776,364.892
963.947,363.968
964.118,363.064
964.289,361.997
964.46,361.118
964.631,360.191
964.802,359.126
964.973,358.203
965.144,357.06
965.315,356.177
965.485,355.096
965.656,354.209
965.827,353.325
965.998,352.081
966.169,350.94
966.339,350.334
966.51,349.262
966.681,348.621
966.851,347.886
967.022,346.613
967.193,345.661
967.363,345.109
967.534,343.879
967.705,343.031
967.875,341.938
968.046,341.143
968.216,340.275
968.387,339.749
968.557,338.659
968.728,337.923
968.898,337.314
969.069,336.44
969.239,335.617
969.41,334.849
969.58,333.984
969.751,333.182
969.921,332.58
970.091,331.753
970.262,331.186
970.432,330.56
970.602,329.847
970.773,328.969
970.943,327.941
971.113,327.329
971.283,326.348
971.454,325.397
971.624,324.898
971.794,323.918
971.964,323.016
972.134,322.017
972.305,321.215
972.475,320.481
972.645,319.687
972.815,318.924
972.985,318.279
973.155,317.205
973.325,316.531
973.495,315.614
973.665,314.876
973.835,313.847
974.005,312.923
974.175,312.243
974.345,311.236
974.515,310.404
974.685,309.526
974.855,308.814
975.024,308.14
975.194,306.861
975.364,305.737
975.534,304.641
975.704,303.489
975.874,302.528
976.043,301.774
976.213,300.863
976.383,299.997
976.553,299.294
976.722,298.885
976.892,297.888
977.062,297.128
977.231,296.044
977.401,295.43
977.57,294.5
977.74,293.718
977.91,292.841
978.079,292.099
978.249,291.12
978.418,290.275
978.588,289.365
978.757,288.617
978.927,287.937
979.096,286.924
979.266,286.254
979.435,285.356
979.604,284.812
979.774,284.239
979.943,283.414
980.113,282.529
980.282,281.57
980.451,280.627
980.621,279.927
980.79,279.048
980.959,278.222
981.128,277.469
981.298,276.668
981.467,275.742
981.636,274.881
981.805,274.252
981.974,273.746
982.143,272.498
982.313,271.682
982.482,270.868
982.651,270.18
982.82,269.202
982.989,268.492
983.158,267.671
983.327,266.928
983.496,266.257
983.665,265.396
983.834,264.554
984.003,263.882
984.172,263.023
984.341,262.425
984.51,261.594
984.679,260.816
984.847,259.675
985.016,258.883
985.185,257.937
985.354,257.025
985.523,256.241
985.692,255.669
985.86,254.804
986.029,254.079
986.198,253.146
986.366,252.364
986.535,251.423
986.704,250.771
986.873,249.87
987.041,249.107
987.21,248.353
987.378,247.685
987.547,247.165
987.716,246.405
987.884,245.241
988.053,244.611
988.221,244.053
988.39,243.62
988.558,242.846
988.727,241.977
988.895,241.17
989.064,240.238
989.232,239.414
989.4,238.671
989.569,237.905
989.737,237.349
989.905,236.839
990.074,236.187
990.242,235.52
990.41,234.513
990.579,233.602
990.747,232.879
990.915,232.171
991.083,231.291
991.252,230.543
991.42,229.898
991.588,229.362
991.756,228.859
991.924,228.153
992.092,227.501
992.261,227.024
992.429,226.401
992.597,225.79
992.765,225.026
992.933,224.236
993.101,223.155
993.269,222.472
993.437,221.738
993.605,221.044
993.773,220.53
993.941,219.47
994.109,218.877
994.277,218.008
994.444,217.272
994.612,216.692
994.78,216.272
994.948,215.345
995.116,214.639
995.284,213.594
995.451,212.999
995.619,212.333
995.787,211.642
995.955,211.037
996.122,210.649
996.29,210.151
996.458,209.573
996.625,208.955
996.793,208.321
996.961,207.558
997.128,206.664
997.296,206.138
997.463,205.518
997.631,204.922
997.798,204.475
997.966,204.026
998.133,203.513
998.301,203.219
998.468,202.79
998.636,202.283
998.803,201.613
998.971,201.124
999.138,200.589
999.305,200.064
999.473,199.901
999.64,199.442
999.807,198.838
999.975,198.41
1000.14,197.746
1000.31,196.956
1000.48,196.666
1000.64,195.821
1000.81,195.019
1000.98,194.732
1001.15,194.312
1001.31,193.452
1001.48,193.042
1001.65,192.233
1001.81,191.422
1001.98,191.036
1002.15,190.675
1002.32,190.081
1002.48,189.816
1002.65,189.159
1002.82,188.496
1002.98,187.796
1003.15,187.291
1003.32,186.581
1003.48,186.007
1003.65,185.491
1003.82,184.583
1003.98,184.047
1004.15,183.331
1004.32,182.694
1004.49,181.839
1004.65,181.443
1004.82,180.803
1004.99,180.071
1005.15,179.891
1005.32,179.34
1005.49,178.534
1005.65,178.064
1005.82,177.299
1005.99,176.944
1006.15,176.359
1006.32,175.448
1006.49,174.985
1006.65,174.23
1006.82,173.599
1006.99,172.939
1007.15,172.432
1007.32,171.733
1007.49,170.928
1007.65,170.526
1007.82,169.947
1007.98,169.68
1008.15,169.301
1008.32,168.893
1008.48,168.518
1008.65,168.148
1008.82,167.839
1008.98,167.545
1009.15,167.344
1009.32,167.047
1009.48,166.536
1009.65,166.258
1009.81,165.814
1009.98,165.444
1010.15,164.906
1010.31,164.27
1010.48,163.392
1010.65,163.045
1010.81,162.591
1010.98,162.245
1011.14,161.535
1011.31,161.127
1011.48,160.661
1011.64,160.178
1011.81,159.404
1011.97,159.108
1012.14,158.653
1012.31,158.034
1012.47,157.398
1012.64,156.663
1012.8,156.094
1012.97,155.509
1013.14,154.762
1013.3,154.416
1013.47,153.762
1013.63,153.361
1013.8,152.853
1013.97,152.445
1014.13,152.241
1014.3,151.53
1014.46,150.783
1014.63,150.187
1014.79,149.841
1014.96,149.631
1015.13,149.39
1015.29,149.001
1015.46,148.397
1015.62,147.874
1015.79,147.414
1015.95,147.121
1016.12,146.723
1016.29,146.29
1016.45,145.888
1016.62,145.176
1016.78,144.816
1016.95,144.307
1017.11,143.865
1017.28,143.427
1017.44,143.143
1017.61,142.814
1017.78,142.41
1017.94,141.848
1018.11,141.745
1018.27,141.297
1018.44,140.878
1018.6,140.446
1018.77,139.906
1018.93,139.461
1019.1,138.707
1019.26,137.873
1019.43,137.415
1019.59,136.9
1019.76,136.268
1019.92,135.705
1020.09,135.486
1020.25,135.105
1020.42,134.713
1020.59,134.098
1020.75,133.479
1020.92,133.081
1021.08,132.49
1021.25,132.291
1021.41,132.439
1021.58,132.109
1021.74,131.758
1021.91,131.116
1022.07,130.775
1022.24,130.286
1022.4,130.123
1022.57,129.61
1022.73,129.32
1022.89,128.669
1023.06,128.541
1023.22,127.995
1023.39,127.639
1023.55,127.308
1023.72,126.954
1023.88,126.735
1024.05,126.403
1024.21,126.105
1024.38,125.746
1024.54,125.476
1024.71,125.261
1024.87,124.666
1025.04,124.061
1025.2,123.598
1025.37,123.416
1025.53,123.246
1025.7,122.736
1025.86,122.233
1026.02,121.599
1026.19,121.223
1026.35,121.025
1026.52,120.837
1026.68,120.557
1026.85,120.183
1027.01,120.128
1027.18,119.763
1027.34,119.736
1027.5,115.488
1027.67,107.174
1027.83,140.801
1028,110.491
1028.16,102.381
1028.33,95.8279
1028.49,133.142
1028.65,112.539
1028.82,88.1685
1028.98,98.9408
1029.15,79.6489
1029.31,74.488
1029.48,97.4253
1029.64,81.2054
1029.8,161.445
1029.97,113.277
1030.13,142.603
1030.3,89.0696
1030.46,91.5271
1030.62,134.248
1030.79,84.1954
1030.95,52.7796
1031.12,59.7017
1031.28,118.437
1031.44,150.795
1031.61,150.795
1031.77,105.658
1031.94,84.4412
1032.1,121.632
1032.26,96.4832
1032.43,104.143
1032.59,102.627
1032.76,110.246
1032.92,146.986
1033.08,75.553
1033.25,100.292
1033.41,109.549
1033.57,117.864
1033.74,83.2124
1033.9,111.884
1034.07,151.082
1034.23,124.54
1034.39,63.5928
1034.56,167.712
1034.72,85.1375
1034.88,103.856
1035.05,99.0637
1035.21,70.474
1035.37,94.9677
1035.54,58.5958
1035.7,51.6737
1035.86,104.02
1036.03,100.456
1036.19,79.9356
1036.35,58.8006
1036.52,116.676
1036.68,121.346
1036.84,111.556
1037.01,76.0035
1037.17,57.0803
1037.33,94.2305
1037.5,82.1884
1037.66,112.949
1037.82,151.615
1037.99,125.851
1038.15,121.059
1038.31,90.5851
1038.48,77.4371
1038.64,52.2471
1038.8,119.216
1038.97,50.6906
1039.13,111.802
1039.29,60.1523
1039.46,130.07
1039.62,93.0017
1039.78,91.4043
1039.95,106.273
1040.11,92.0596
1040.27,109.672
1040.43,90.1345
1040.6,86.3663
1040.76,83.1305
1040.92,91.9777
1041.09,102.177
1041.25,76.9046
1041.41,74.7338
1041.57,96.6471
1041.74,122.451
1041.9,115.529
1042.06,84.8098
1042.23,77.3142
1042.39,65.9275
1042.55,91.4043
1042.71,124.172
1042.88,92.3873
1043.04,103.242
1043.2,60.9714
1043.36,151
1043.53,101.808
1043.69,101.235
EndSpectrumFile,CALIBRATION
SpectrumFile,CALIBRATION
Version,1.000000
Location,
Customer,
SampleInfo,
GPSData,51.118491,-114.185425,1143.658447,1107,71211
SystemTime,2011,12,7,0,13,42,578
Pipe km,0.000000
Pre-Dilution Factor,1.000000
Freeform Info,
Concentration,10.000000
CalibrationName,paper-distance
Unique Calibration File ID,
CalibrationWavelength,780.000000
CalibrationType,2,-0.131013,0.002732
CalibrationRSquared,0.999340
CalibrationConcentrations [ppm],3,0.000000,1.000000,10.000000
CalibrationCounts,3,0.000000,468.909715,3701.410325
CalibrationWarnLow,0.000000
CalibrationWarnHigh,10.000000
CalibrationErrorLow,0.000000
CalibrationErrorHigh,0.000000
Spectrometer Name,USB4000
Spectrometer Serial,USB4H02759
IntegrationTime [ms],0.000000
AveragedSpectra,-858993460
BoxcarWidth,-858993460
WavelengthRange [nm],346.775360,1043.690197
IntensityRange [counts],-134.250128,4809.297214
WavelengthCount,3648
Wavelength [nm],Intensity [counts]
346.775,-133.472
346.991,-133.472
347.206,-133.472
347.421,-134.25
347.637,-118.931
347.852,75.4619
348.067,45.6434
348.282,59.3239
348.498,43.1449
348.713,65.4678
348.928,79.1482
349.143,74.7656
349.358,19.88
349.574,41.8752
349.789,37.9431
350.004,98.8906
350.219,49.4117
350.434,58.6276
350.649,68.5397
350.864,42.039
351.079,74.8065
351.295,95.3681
351.51,25.2047
351.725,42.4077
351.94,11.4424
352.155,48.9612
352.37,71.1202
352.585,50.1899
352.8,92.9925
353.015,27.4165
353.23,98.7268
353.445,34.1748
353.66,53.5076
353.875,83.8995
354.09,91.5179
354.305,37.4106
354.52,65.7955
354.735,40.6874
354.949,81.8515
355.164,96.8427
355.379,35.4446
355.594,64.6896
355.809,106.55
356.024,69.277
356.239,71.5707
356.453,92.6648
356.668,55.6375
356.883,68.1301
357.098,99.1774
357.313,68.4988
357.527,79.8445
357.742,56.9482
357.957,49.4527
358.172,59.4058
358.386,64.6486
358.601,68.8265
358.816,105.321
359.03,36.7553
359.245,55.146
359.46,114.209
359.674,73.6597
359.889,18.2826
360.104,92.7058
360.318,85.2512
360.533,72.9224
360.748,45.7663
360.962,67.8434
361.177,53.5076
361.391,63.256
361.606,54.0811
361.82,80.2951
362.035,69.318
362.25,52.6885
362.464,44.087
362.679,131.781
362.893,60.4298
363.108,73.5777
363.322,91.0674
363.536,59.3648
363.751,46.8313
363.965,65.3449
364.18,63.9523
364.394,79.9674
364.609,51.9102
364.823,72.1442
365.037,84.391
365.252,71.325
365.466,40.4826
365.68,78.9025
365.895,50.3538
366.109,70.1781
366.323,54.0401
366.538,58.1361
366.752,42.4486
366.966,56.211
367.181,45.6434
367.395,39.4176
367.609,23.935
367.823,104.011
368.038,69.8914
368.252,65.3266
368.466,66.353
368.68,67.508
368.894,68.4859
369.109,69.3899
369.323,70.57
369.537,70.5563
369.751,70.7548
369.965,70.9671
370.179,71.2058
370.393,71.3386
370.607,71.4042
370.822,71.7419
371.036,72.1584
371.25,72.3159
371.464,72.6528
371.678,72.6314
371.892,72.8955
372.106,72.893
372.32,73.2431
372.534,73.4661
372.748,73.7346
372.962,73.8204
373.176,74.1027
373.39,74.4456
373.604,74.8593
373.818,75.1244
374.031,75.0692
374.245,75.3284
374.459,75.382
374.673,75.5868
374.887,75.6237
375.101,75.953
375.315,76.2733
375.529,76.3646
375.742,76.4125
375.956,76.6362
376.17,76.7051
376.384,76.9423
376.598,76.8726
376.811,76.8235
377.025,77.3224
377.239,77.6912
377.453,77.8112
377.666,78.091
377.88,78.1257
378.094,78.62
378.307,78.9503
378.521,79.2093
378.735,79.1323
378.948,79.3104
379.162,79.4777
379.376,79.6837
379.589,80.1834
379.803,80.3479
380.016,80.3448
380.23,80.7387
380.444,80.8286
380.657,81.1489
380.871,81.4476
381.084,81.4391
381.298,81.3519
381.511,81.5852
381.725,81.993
381.938,82.2526
382.152,82.4064
382.365,82.5992
382.579,82.7616
382.792,83.008
383.006,83.2187
383.219,83.4891
383.433,83.6945
383.646,83.9904
383.859,84.1483
384.073,84.4931
384.286,84.2467
384.5,84.5019
384.713,84.6967
384.926,84.744
385.14,85.2952
385.353,85.6192
385.566,85.8733
385.779,86.1129
385.993,86.2625
386.206,86.6619
386.419,86.7936
386.633,86.8306
386.846,87.29
387.059,87.7356
387.272,87.9156
387.485,88.5118
387.699,88.6781
387.912,89.0863
388.125,89.46
388.338,90.2158
388.551,90.7045
388.764,91.1293
388.978,91.5232
389.191,91.9239
389.404,92.1629
389.617,92.3013
389.83,92.4706
390.043,92.8066
390.256,92.7824
390.469,93.2044
390.682,93.311
390.895,93.614
391.108,93.6505
391.321,93.893
391.534,93.7316
391.747,94.0095
391.96,93.8166
392.173,94.2975
392.386,94.961
392.599,95.4028
392.812,96.0306
393.025,96.4392
393.238,96.7322
393.451,96.9721
393.663,97.1043
393.876,97.6973
394.089,97.8206
394.302,98.3751
394.515,98.7655
394.728,98.9937
394.941,99.3854
395.153,99.5036
395.366,99.7367
395.579,100.138
395.792,100.298
396.004,100.826
396.217,101.089
396.43,101.516
396.643,102.124
396.855,102.324
397.068,102.759
397.281,103.239
397.493,103.58
397.706,103.801
397.919,104.185
398.131,104.733
398.344,105.131
398.557,105.357
398.769,105.253
398.982,105.783
399.194,106.059
399.407,106.642
399.619,107.133
399.832,107.662
400.045,108.283
400.257,109.245
400.47,109.718
400.682,110.456
400.895,111.041
401.107,111.566
401.319,112.088
401.532,112.488
401.744,112.998
401.957,113.557
402.169,113.661
402.382,114.215
402.594,114.669
402.806,115.435
403.019,116.111
403.231,116.357
403.444,116.752
403.656,117.251
403.868,117.902
404.081,118.606
404.293,119.292
404.505,119.633
404.717,120.166
404.93,120.989
405.142,121.288
405.354,121.986
405.566,122.725
405.779,123.259
405.991,123.709
406.203,124.342
406.415,124.776
406.627,125.31
406.84,125.854
407.052,126.977
407.264,127.27
407.476,127.784
407.688,128.682
407.9,129.317
408.112,130.09
408.324,131.019
408.537,131.633
408.749,132.666
408.961,133.538
409.173,134.411
409.385,135.02
409.597,135.369
409.809,135.948
410.021,136.589
410.233,137.36
410.445,137.906
410.657,139.105
410.869,139.873
411.081,140.475
411.292,141.399
411.504,142.18
411.716,143.191
411.928,144.124
412.14,144.843
412.352,145.587
412.564,146.395
412.776,147.093
412.988,147.955
413.199,148.474
413.411,149.204
413.623,149.788
413.835,150.497
414.047,151.414
414.258,152.403
414.47,153.338
414.682,153.955
414.894,154.932
415.105,155.509
415.317,156.272
415.529,156.97
415.74,157.713
415.952,158.766
416.164,159.547
416.375,160.428
416.587,161.4
416.799,162.526
417.01,163.442
417.222,164.414
417.433,165.637
417.645,166.414
417.857,167.349
418.068,168.254
418.28,169.254
418.491,170.15
418.703,171.331
418.914,172.584
419.126,173.767
419.337,174.97
419.549,175.806
419.76,176.664
419.972,177.558
420.183,178.656
420.394,179.563
420.606,180.668
420.817,181.316
421.029,182.23
421.24,183.235
421.451,184.354
421.663,185.687
421.874,186.941
422.085,187.932
422.297,188.789
422.508,190.03
422.719,191.718
422.931,192.775
423.142,193.904
423.353,195.169
423.565,196.393
423.776,197.562
423.987,199.162
424.198,200.524
424.409,201.342
424.621,202.601
424.832,203.804
425.043,205.16
425.254,206.512
425.465,207.662
425.676,209.108
425.888,210.473
426.099,211.644
426.31,212.832
426.521,214.099
426.732,215.263
426.943,216.677
427.154,218.019
427.365,219.185
427.576,220.549
427.787,221.532
427.998,222.707
428.209,224.059
428.42,225.551
428.631,227.026
428.842,228.202
429.053,229.448
429.264,230.951
429.475,232.199
429.686,233.522
429.897,235.019
430.108,236.05
430.319,237.789
430.529,239.032
430.74,240.308
430.951,241.584
431.162,242.827
431.373,244.115
431.584,245.695
431.794,247.349
432.005,248.702
432.216,250.338
432.427,251.686
432.637,253.308
432.848,255.208
433.059,256.445
433.27,257.779
433.48,259.492
433.691,261.188
433.902,263.13
434.112,264.608
434.323,266.195
434.534,268.028
434.744,269.582
434.955,270.753
435.166,272.096
435.376,273.452
435.587,275.21
435.797,276.721
436.008,278.198
436.218,280.221
436.429,281.961
436.64,283.748
436.85,285.183
437.061,286.81
437.271,288.831
437.482,290.472
437.692,292.504
437.902,294.093
438.113,295.742
438.323,297.456
438.534,298.892
438.744,300.504
438.955,302.396
439.165,304.22
439.375,305.707
439.586,307.125
439.796,308.936
440.006,310.502
440.217,312.56
440.427,314.344
440.637,316.11
440.848,317.634
441.058,319.502
441.268,321.505
441.479,323.203
441.689,325.207
441.899,327.151
442.109,328.795
442.319,330.716
442.53,332.421
442.74,333.937
442.95,336.108
443.16,337.855
443.37,340.048
443.58,341.817
443.791,344.102
444.001,346.093
444.211,348.068
444.421,350.127
444.631,352.526
444.841,354.739
445.051,356.713
445.261,358.412
445.471,361.554
445.681,363.847
445.891,366.156
446.101,368.253
446.311,370.392
446.521,372.385
446.731,374.357
446.941,376.674
447.151,379.107
447.361,381.016
447.571,383.021
447.781,385.417
447.991,387.342
448.201,389.579
448.41,392.244
448.62,394.349
448.83,396.643
449.04,398.633
449.25,401.109
449.46,403.148
449.669,405.34
449.879,407.597
450.089,409.648
450.299,412.284
450.508,414.385
450.718,416.588
450.928,418.673
451.138,420.875
451.347,423.334
451.557,425.702
451.767,428.05
451.976,430.557
452.186,433.204
452.396,435.491
452.605,437.8
452.815,440.376
453.025,442.54
453.234,444.986
453.444,447.425
453.653,449.789
453.863,452.009
454.072,454.329
454.282,456.902
454.491,459.249
454.701,461.842
454.911,464.38
455.12,466.923
455.329,469.406
455.539,472.226
455.748,474.799
455.958,477.247
456.167,479.958
456.377,482.6
456.586,484.912
456.795,487.347
457.005,489.979
457.214,492.958
457.424,495.642
457.633,498.36
457.842,501.058
458.052,503.724
458.261,506.287
458.47,509.085
458.679,511.657
458.889,514.351
459.098,517.239
459.307,519.992
459.517,522.786
459.726,525.439
459.935,528.518
460.144,531.183
460.353,534
460.563,536.955
460.772,539.794
460.981,542.779
461.19,545.626
461.399,548.378
461.608,551.36
461.817,554.753
462.026,557.927
462.236,560.958
462.445,564
462.654,567.368
462.863,570.451
463.072,573.807
463.281,576.917
463.49,580.071
463.699,583.453
463.908,586.649
464.117,589.487
464.326,593.061
464.535,596.6
464.744,600.106
464.952,602.992
465.161,606.074
465.37,609.548
465.579,612.764
465.788,616.102
465.997,619.707
466.206,623.071
466.415,626.691
466.623,630.47
466.832,633.916
467.041,637.676
467.25,641.328
467.459,644.721
467.667,648.428
467.876,652.304
468.085,656.23
468.294,659.935
468.502,663.759
468.711,667.972
468.92,671.98
469.128,676.173
469.337,679.899
469.546,683.828
469.754,687.947
469.963,691.95
470.172,696.344
470.38,700.523
470.589,704.167
470.798,708.294
471.006,712.429
471.215,716.651
471.423,720.876
471.632,724.923
471.84,729.191
472.049,733.441
472.257,737.816
472.466,742.075
472.674,746.376
472.883,750.91
473.091,755.025
473.3,759.528
473.508,764.075
473.716,768.497
473.925,772.76
474.133,777.225
474.342,781.589
474.55,786.28
474.758,791
474.967,795.128
475.175,800.123
475.383,804.931
475.592,809.516
475.8,813.899
476.008,818.205
476.217,822.949
476.425,827.796
476.633,832.262
476.841,836.741
477.05,841.598
477.258,846.771
477.466,851.487
477.674,856.03
477.882,860.944
478.091,865.929
478.299,870.709
478.507,875.415
478.715,880.528
478.923,885.284
479.131,890.416
479.339,895.097
479.547,900.217
479.755,904.979
479.963,909.995
480.171,915.066
480.38,919.912
480.588,925.092
480.796,930.065
481.004,934.588
481.212,939.432
481.42,944.596
481.627,949.901
481.835,955.065
482.043,960.245
482.251,965.138
482.459,970.178
482.667,975.244
482.875,980.342
483.083,985.892
483.291,991.025
483.499,996.182
483.706,1001.11
483.914,1006.09
484.122,1011.18
484.33,1016.33
484.538,1021.64
484.745,1026.71
484.953,1031.54
485.161,1036.52
485.369,1041.56
485.576,1047.07
485.784,1051.93
485.992,1057.11
486.199,1062.11
486.407,1067.16
486.615,1072.19
486.822,1077.02
487.03,1082
487.238,1087.12
487.445,1090.73
487.653,1095.59
487.861,1100.64
488.068,1105.4
488.276,1110.23
488.483,1115.17
488.691,1120.17
488.898,1125.23
489.106,1129.85
489.313,1134.99
489.521,1140.09
489.728,1144.62
489.936,1149.6
490.143,1154.6
490.351,1159.09
490.558,1164.19
490.766,1168.91
490.973,1173.85
491.18,1178.34
491.388,1183.06
491.595,1187.99
491.802,1192.96
492.01,1197.77
492.217,1202.12
492.424,1207.07
492.632,1211.64
492.839,1216.7
493.046,1221.3
493.254,1225.75
493.461,1230.3
493.668,1235.02
493.875,1239.8
494.083,1244.03
494.29,1248.63
494.497,1253.35
494.704,1257.63
494.911,1262.17
495.119,1266.68
495.326,1271.21
495.533,1275.71
495.74,1280.1
495.947,1284.4
496.154,1288.63
496.361,1292.8
496.568,1296.77
496.775,1300.8
496.982,1304.96
497.19,1309.28
497.397,1313.45
497.604,1317.71
497.811,1321.83
498.018,1326.07
498.225,1330.19
498.432,1334.39
498.638,1338.36
498.845,1342.87
499.052,1346.56
499.259,1350.57
499.466,1354.64
499.673,1358.32
499.88,1362.55
500.087,1366.32
500.294,1370.06
500.501,1374.03
500.707,1377.64
500.914,1381.21
501.121,1385.06
501.328,1388.49
501.535,1392.47
501.741,1396.37
501.948,1400.16
502.155,1404.02
502.362,1407.32
502.568,1410.86
502.775,1414.38
502.982,1417.82
503.188,1421.23
503.395,1424.59
503.602,1427.54
503.808,1430.58
504.015,1433.73
504.222,1436.68
504.428,1439.73
504.635,1443.42
504.841,1446.18
505.048,1449.46
505.254,1452.64
505.461,1455.7
505.668,1458.39
505.874,1461.6
506.081,1464.62
506.287,1467.06
506.494,1469.66
506.7,1472.66
506.907,1475.8
507.113,1478.46
507.319,1481.37
507.526,1484.29
507.732,1486.92
507.939,1489.62
508.145,1491.9
508.351,1494.19
508.558,1496.5
508.764,1498.81
508.97,1500.93
509.177,1503.43
509.383,1505.71
509.589,1507.74
509.796,1509.55
510.002,1511.89
510.208,1513.79
510.414,1515.56
510.621,1517.46
510.827,1519.29
511.033,1521.43
511.239,1523.48
511.445,1525.1
511.652,1527.04
511.858,1528.72
512.064,1530.27
512.27,1532.25
512.476,1533.67
512.682,1535.38
512.888,1537.01
513.095,1538.46
513.301,1540.05
513.507,1541.3
513.713,1542.57
513.919,1543.93
514.125,1545.06
514.331,1546.5
514.537,1547.77
514.743,1548.96
514.949,1550.22
515.155,1551.39
515.361,1552.42
515.567,1553.6
515.773,1554.55
515.978,1555.57
516.184,1556.46
516.39,1556.92
516.596,1557.83
516.802,1558.4
517.008,1559.05
517.214,1559.72
517.419,1560.72
517.625,1561.44
517.831,1562.08
518.037,1562.49
518.243,1563.18
518.448,1564
518.654,1564.53
518.86,1564.76
519.066,1565.51
519.271,1565.87
519.477,1566.22
519.683,1566.55
519.888,1566.95
520.094,1567.19
520.3,1567.09
520.505,1567.52
520.711,1567.76
520.917,1568.19
521.122,1568.41
521.328,1568.47
521.533,1568.46
521.739,1568.72
521.944,1568.81
522.15,1568.69
522.356,1568.71
522.561,1569.03
522.767,1568.73
522.972,1568.44
523.177,1568.38
523.383,1568.44
523.588,1568.21
523.794,1567.75
523.999,1567.31
524.205,1567.08
524.41,1566.77
524.615,1565.92
524.821,1565.44
525.026,1564.87
525.232,1564.4
525.437,1564.09
525.642,1563.64
525.847,1563.2
526.053,1562.58
526.258,1561.99
526.463,1561.23
526.669,1560.59
526.874,1559.57
527.079,1558.31
527.284,1557.6
527.49,1556.67
527.695,1555.59
527.9,1554.64
528.105,1553.34
528.31,1552.25
528.515,1551.33
528.721,1550.19
528.926,1548.98
529.131,1547.79
529.336,1546.76
529.541,1545.81
529.746,1544.67
529.951,1543.48
530.156,1542.35
530.361,1540.73
530.566,1539.46
530.771,1538.06
530.976,1536.65
531.181,1535.49
531.386,1534.01
531.591,1532.35
531.796,1531.09
532.001,1529.58
532.206,1527.85
532.411,1526.34
532.616,1524.83
532.821,1522.97
533.025,1521.17
533.23,1519.22
533.435,1517.46
533.64,1515.63
533.845,1513.73
534.05,1512.04
534.254,1510.11
534.459,1508.32
534.664,1506.43
534.869,1504.7
535.073,1502.81
535.278,1500.78
535.483,1498.72
535.688,1496.71
535.892,1494.7
536.097,1492.82
536.302,1490.59
536.506,1488.55
536.711,1486.58
536.916,1484.29
537.12,1482.24
537.325,1480.42
537.529,1478.31
537.734,1476.2
537.938,1475
538.143,1473.22
538.348,1471.05
538.552,1468.62
538.757,1466.61
538.961,1464.69
539.166,1462.56
539.37,1460.49
539.575,1458.07
539.779,1455.62
539.983,1453.38
540.188,1450.78
540.392,1448.41
540.597,1446.16
540.801,1443.72
541.005,1441.45
541.21,1438.68
541.414,1436.37
541.618,1434.11
541.823,1431.62
542.027,1429.15
542.231,1426.74
542.436,1424.03
542.64,1421.8
542.844,1418.98
543.048,1416.13
543.253,1413.46
543.457,1410.51
543.661,1407.88
543.865,1405.44
544.069,1402.61
544.274,1400.01
544.478,1397.37
544.682,1394.86
544.886,1392.23
545.09,1390.01
545.294,1387.3
545.498,1385.02
545.702,1382.28
545.907,1379.2
546.111,1376.47
546.315,1373.79
546.519,1371.07
546.723,1368.2
546.927,1365.73
547.131,1363.07
547.335,1360.04
547.539,1357.54
547.743,1354.89
547.947,1352.22
548.15,1349.18
548.354,1346.29
548.558,1343.49
548.762,1340.52
548.966,1337.51
549.17,1334.52
549.374,1331.74
549.578,1328.85
549.781,1326.07
549.985,1323.25
550.189,1320.73
550.393,1318.17
550.597,1315.46
550.8,1312.53
551.004,1309.9
551.208,1307.27
551.412,1304.58
551.615,1301.86
551.819,1299.27
552.023,1296.5
552.226,1293.63
552.43,1290.69
552.634,1287.81
552.837,1284.99
553.041,1282.12
553.244,1279.33
553.448,1276.84
553.652,1274.25
553.855,1271.66
554.059,1269.23
554.262,1266.66
554.466,1264.03
554.669,1261.53
554.873,1259.19
555.076,1256.8
555.28,1254.2
555.483,1251.72
555.687,1248.93
555.89,1246.35
556.094,1243.52
556.297,1241.01
556.5,1238.46
556.704,1235.86
556.907,1233.43
557.111,1231.12
557.314,1228.61
557.517,1226.51
557.721,1224.25
557.924,1222.06
558.127,1219.66
558.33,1217.31
558.534,1215.06
558.737,1212.87
558.94,1210.44
559.144,1208.35
559.347,1206.24
559.55,1204
559.753,1201.93
559.956,1199.68
560.159,1197.57
560.363,1195.96
560.566,1194.16
560.769,1192.21
560.972,1190.24
561.175,1188.44
561.378,1186.84
561.581,1184.82
561.784,1183.01
561.987,1181.15
562.19,1179.18
562.394,1177.54
562.597,1176.4
562.8,1174.69
563.003,1173.12
563.205,1171.54
563.408,1170.21
563.611,1168.82
563.814,1167.7
564.017,1166.67
564.22,1165.14
564.423,1163.58
564.626,1162.46
564.829,1161.42
565.032,1160.52
565.235,1159.22
565.437,1158.22
565.64,1157.21
565.843,1156.58
566.046,1155.93
566.249,1155.15
566.451,1154.04
566.654,1153.47
566.857,1152.97
567.06,1152.22
567.262,1152
567.465,1152
567.668,1151.68
567.87,1151.33
568.073,1151.22
568.276,1150.88
568.478,1150.86
568.681,1151.07
568.884,1150.94
569.086,1151.45
569.289,1151.62
569.491,1152.08
569.694,1152.38
569.896,1152.83
570.099,1153.57
570.301,1153.83
570.504,1154.28
570.706,1154.6
570.909,1155.16
571.111,1155.79
571.314,1156.93
571.516,1157.74
571.719,1158.64
571.921,1159.52
572.124,1160.42
572.326,1161.43
572.528,1162.53
572.731,1163.61
572.933,1164.82
573.135,1166.4
573.338,1167.61
573.54,1168.75
573.742,1170.11
573.945,1171.85
574.147,1173.39
574.349,1174.86
574.551,1176.4
574.754,1178.17
574.956,1180.02
575.158,1181.39
575.36,1183.45
575.562,1185.35
575.765,1187.06
575.967,1188.92
576.169,1191.14
576.371,1193.14
576.573,1195.3
576.775,1197.07
576.977,1199.19
577.179,1201.36
577.382,1203.43
577.584,1205.7
577.786,1208.03
577.988,1210.58
578.19,1212.72
578.392,1215.19
578.594,1217.91
578.796,1219.88
578.998,1222.14
579.2,1224.59
579.401,1227.35
579.603,1229.95
579.805,1232.42
580.007,1234.85
580.209,1237.04
580.411,1240.22
580.613,1243.15
580.815,1246.16
581.016,1248.98
581.218,1251.97
581.42,1254.81
581.622,1257.71
581.824,1260.91
582.025,1264.35
582.227,1267.54
582.429,1270.29
582.631,1273.13
582.832,1276.2
583.034,1279.38
583.236,1282.44
583.437,1285.54
583.639,1288.78
583.841,1291.87
584.042,1295.22
584.244,1298.5
584.446,1302
584.647,1305.17
584.849,1308.38
585.05,1311.6
585.252,1314.83
585.453,1318.06
585.655,1321.6
585.856,1324.66
586.058,1328.08
586.259,1331.45
586.461,1334.76
586.662,1338.45
586.864,1342.13
587.065,1345.87
587.267,1349.25
587.468,1352.88
587.67,1356.65
587.871,1360.16
588.072,1363.69
588.274,1367.48
588.475,1371.18
588.676,1374.62
588.878,1378.31
589.079,1382.2
589.28,1385.82
589.481,1389.41
589.683,1393
589.884,1396.95
590.085,1400.85
590.286,1404.71
590.488,1408.54
590.689,1412.24
590.89,1415.91
591.091,1419.33
591.292,1423.12
591.494,1426.74
591.695,1430.46
591.896,1434.18
592.097,1438.05
592.298,1441.66
592.499,1445.43
592.7,1449.18
592.901,1453.14
593.102,1457.35
593.303,1461.45
593.504,1465.34
593.705,1469.35
593.906,1473.28
594.107,1477.24
594.308,1480.88
594.509,1484.39
594.71,1488
594.911,1491.79
595.112,1495.48
595.313,1499.21
595.514,1502.91
595.715,1506.52
595.915,1510.22
596.116,1513.87
596.317,1518.09
596.518,1521.89
596.719,1525.74
596.92,1529.5
597.12,1533.34
597.321,1537.2
597.522,1541.12
597.723,1544.7
597.923,1548.48
598.124,1551.9
598.325,1555.8
598.525,1558.98
598.726,1562.73
598.927,1566.47
599.127,1570.01
599.328,1573.71
599.529,1577.36
599.729,1580.59
599.93,1584.3
600.13,1587.74
600.331,1590.95
600.531,1594.46
600.732,1597.82
600.933,1600.99
601.133,1604.31
601.334,1607.78
601.534,1610.93
601.734,1614
601.935,1617.17
602.135,1620.27
602.336,1623.3
602.536,1626.39
602.737,1629.6
602.937,1632.7
603.137,1635.31
603.338,1638.15
603.538,1641.05
603.738,1644.28
603.939,1647.4
604.139,1650.22
604.339,1653.22
604.54,1655.88
604.74,1659.01
604.94,1661.78
605.14,1664.54
605.341,1667.12
605.541,1669.94
605.741,1672.35
605.941,1674.79
606.141,1677.58
606.342,1680.03
606.542,1682.47
606.742,1684.82
606.942,1687.43
607.142,1689.96
607.342,1692.31
607.542,1694.62
607.742,1696.54
607.942,1698.35
608.142,1700.48
608.343,1702.84
608.543,1705
608.743,1707.14
608.943,1709.05
609.143,1710.99
609.342,1713.19
609.542,1715.07
609.742,1717.12
609.942,1718.91
610.142,1720.42
610.342,1722.25
610.542,1723.66
610.742,1725.6
610.942,1727.22
611.142,1729.16
611.341,1730.82
611.541,1732.31
611.741,1733.45
611.941,1734.96
612.141,1736.34
612.34,1737.84
612.54,1739.28
612.74,1740.97
612.94,1742.28
613.139,1743.8
613.339,1744.81
613.539,1746.07
613.738,1747.13
613.938,1748.56
614.138,1749.96
614.337,1750.93
614.537,1752.17
614.736,1753.11
614.936,1754.49
615.136,1755.41
615.335,1756.24
615.535,1757.41
615.734,1758.45
615.934,1759.61
616.133,1760.49
616.333,1761.7
616.532,1762.61
616.732,1763.87
616.931,1764.81
617.131,1766.14
617.33,1767.22
617.529,1768.2
617.729,1769.11
617.928,1769.98
618.128,1770.79
618.327,1771.32
618.526,1772.01
618.726,1772.98
618.925,1773.6
619.124,1774.23
619.324,1775.13
619.523,1776.12
619.722,1776.86
619.921,1777.73
620.121,1778.21
620.32,1779.53
620.519,1780.36
620.718,1780.86
620.917,1781.5
621.117,1782.17
621.316,1782.93
621.515,1783.51
621.714,1784.5
621.913,1785.07
622.112,1785.88
622.311,1786.23
622.51,1787
622.709,1787.96
622.909,1789.08
623.108,1790.2
623.307,1790.57
623.506,1791.67
623.705,1792.47
623.904,1793.1
624.103,1793.88
624.301,1794.79
624.5,1795.71
624.699,1796.66
624.898,1797.49
625.097,1798.46
625.296,1799.42
625.495,1800.56
625.694,1801.26
625.893,1802.38
626.091,1803.33
626.29,1804.6
626.489,1805.21
626.688,1806.23
626.887,1806.92
627.085,1807.8
627.284,1808.24
627.483,1809.12
627.682,1809.93
627.88,1810.3
628.079,1811.37
628.278,1812.58
628.476,1813.25
628.675,1814.15
628.874,1815.19
629.072,1816.04
629.271,1817.18
629.47,1818.4
629.668,1819.54
629.867,1820.63
630.065,1821.4
630.264,1822.41
630.462,1823.44
630.661,1824.49
630.859,1825.79
631.058,1827.18
631.256,1828.62
631.455,1830.34
631.653,1831.85
631.852,1833.16
632.05,1834.15
632.249,1835.4
632.447,1836.91
632.645,1838.34
632.844,1839.57
633.042,1840.95
633.24,1842.1
633.439,1843.45
633.637,1844.79
633.835,1846.08
634.034,1847.42
634.232,1848.57
634.43,1850.16
634.628,1851.88
634.827,1853.37
635.025,1854.9
635.223,1856.51
635.421,1857.8
635.62,1859.12
635.818,1860.67
636.016,1862.11
636.214,1863.64
636.412,1864.73
636.61,1866.25
636.808,1867.81
637.006,1869.23
637.205,1870.78
637.403,1872.63
637.601,1873.83
637.799,1875.41
637.997,1877.17
638.195,1878.76
638.393,1880.04
638.591,1881.94
638.789,1883.54
638.987,1885.38
639.184,1886.97
639.382,1888.69
639.58,1890.37
639.778,1892.18
639.976,1893.74
640.174,1895.55
640.372,1897.91
640.57,1899.8
640.767,1901.73
640.965,1903.3
641.163,1905.04
641.361,1907.07
641.559,1909.17
641.756,1911.4
641.954,1913.02
642.152,1915.27
642.35,1917.4
642.547,1919.23
642.745,1921.12
642.943,1923.34
643.14,1925.26
643.338,1927.46
643.536,1929.66
643.733,1931.31
643.931,1933.13
644.128,1934.97
644.326,1936.74
644.524,1938.84
644.721,1940.43
644.919,1942.72
645.116,1944.61
645.314,1946.86
645.511,1948.57
645.709,1950.76
645.906,1953.06
646.104,1955.31
646.301,1957.58
646.498,1959.54
646.696,1961.65
646.893,1963.6
647.091,1965.32
647.288,1967.2
647.485,1969.39
647.683,1971.47
647.88,1973.78
648.077,1975.99
648.275,1977.99
648.472,1980.06
648.669,1982.1
648.867,1984.33
649.064,1986.41
649.261,1988.79
649.458,1990.77
649.655,1992.71
649.853,1994.56
650.05,1996.82
650.247,1999.14
650.444,2001.48
650.641,2003.35
650.838,2005.74
651.036,2007.82
651.233,2009.75
651.43,2011.57
651.627,2013.98
651.824,2015.81
652.021,2017.98
652.218,2020.04
652.415,2022.14
652.612,2023.74
652.809,2025.94
653.006,2027.63
653.203,2029.86
653.4,2031.77
653.597,2034.07
653.794,2036.15
653.991,2038.33
654.187,2040.34
654.384,2042.08
654.581,2044.22
654.778,2046.05
654.975,2047.95
655.172,2050
655.369,2051.68
655.565,2053.39
655.762,2055.14
655.959,2057.19
656.156,2058.81
656.352,2060.17
656.549,2062.13
656.746,2063.7
656.943,2065.14
657.139,2066.93
657.336,2068.77
657.533,2070.67
657.729,2072.21
657.926,2073.98
658.122,2076.14
658.319,2078.01
658.516,2079.58
658.712,2081.43
658.909,2083.24
659.105,2084.92
659.302,2086.4
659.498,2088.15
659.695,2089.53
659.891,2091.08
660.088,2092.32
660.284,2094.08
660.481,2095.6
660.677,2097.2
660.874,2098.72
661.07,2100.1
661.266,2101.69
661.463,2102.74
661.659,2104.15
661.856,2105.18
662.052,2106.55
662.248,2107.44
662.444,2108.51
662.641,2109.66
662.837,2110.91
663.033,2112.43
663.23,2113.27
663.426,2114.19
663.622,2115.44
663.818,2116.43
664.014,2117.35
664.211,2118.29
664.407,2119.24
664.603,2120.15
664.799,2121.13
664.995,2122.08
665.191,2122.78
665.387,2123.79
665.584,2124.38
665.78,2125.26
665.976,2125.8
666.172,2126.55
666.368,2127.23
666.564,2128
666.76,2128.87
666.956,2129.76
667.152,2130.37
667.348,2131.27
667.544,2132.07
667.74,2132.4
667.936,2132.53
668.131,2132.99
668.327,2133.09
668.523,2133.75
668.719,2134.25
668.915,2134.15
669.111,2134.31
669.307,2134.55
669.502,2134.86
669.698,2135.23
669.894,2135.46
670.09,2135.66
670.285,2135.52
670.481,2135.62
670.677,2135.33
670.873,2134.89
671.068,2134.11
671.264,2134.02
671.46,2133.77
671.655,2133.25
671.851,2133.02
672.047,2132.57
672.242,2131.88
672.438,2131.39
672.633,2130.89
672.829,2130.25
673.025,2129.58
673.22,2128.88
673.416,2128.06
673.611,2127.78
673.807,2127.08
674.002,2126.19
674.198,2125.46
674.393,2124.82
674.589,2123.73
674.784,2122.77
674.979,2122.07
675.175,2121.01
675.37,2119.85
675.566,2118.95
675.761,2117.84
675.956,2116.68
676.152,2115.61
676.347,2114.44
676.542,2113.46
676.738,2112.23
676.933,2110.49
677.128,2109.4
677.323,2108.16
677.519,2106.46
677.714,2105.24
677.909,2103.93
678.104,2102.5
678.299,2101.04
678.494,2099.28
678.69,2097.55
678.885,2095.83
679.08,2094.17
679.275,2092.67
679.47,2090.51
679.665,2088.56
679.86,2086.14
680.055,2084.08
680.25,2082.07
680.445,2080.16
680.64,2078.1
680.835,2075.56
681.03,2073.25
681.225,2071.06
681.42,2069.15
681.615,2066.61
681.81,2064.01
682.005,2061.88
682.2,2059.53
682.395,2056.91
682.59,2054.72
682.785,2052.16
682.979,2049.43
683.174,2047.12
683.369,2044.27
683.564,2041.6
683.759,2038.72
683.953,2036.09
684.148,2033.64
684.343,2030.62
684.538,2028.13
684.732,2024.93
684.927,2022.33
685.122,2019.71
685.316,2016.82
685.511,2013.53
685.706,2010.42
685.9,2007.74
686.095,2004.84
686.29,2001.68
686.484,1998.89
686.679,1995.76
686.873,1992.72
687.068,1989.51
687.262,1986.37
687.457,1983.1
687.651,1979.97
687.846,1976.65
688.04,1973.91
688.235,1970.46
688.429,1967.36
688.624,1963.67
688.818,1960.38
689.013,1957.04
689.207,1953.82
689.401,1950.47
689.596,1946.99
689.79,1943.87
689.984,1940.56
690.179,1936.95
690.373,1933.64
690.567,1930.12
690.762,1927.07
690.956,1923.55
691.15,1920.24
691.344,1916.51
691.538,1913.13
691.733,1909.6
691.927,1906.36
692.121,1902.69
692.315,1899.41
692.509,1895.97
692.703,1892.55
692.898,1888.87
693.092,1885.56
693.286,1881.92
693.48,1878.43
693.674,1875.1
693.868,1871.64
694.062,1868.38
694.256,1864.89
694.45,1861.37
694.644,1858.51
694.838,1855.06
695.032,1851.81
695.226,1848.3
695.42,1844.85
695.614,1841.82
695.808,1838.34
696.002,1835.11
696.195,1831.96
696.389,1828.33
696.583,1824.93
696.777,1821.66
696.971,1818.32
697.165,1815.08
697.358,1811.38
697.552,1807.8
697.746,1804.45
697.94,1801.25
698.133,1798.14
698.327,1794.7
698.521,1791.79
698.715,1788.12
698.908,1784.74
699.102,1781.64
699.296,1778.53
699.489,1775.21
699.683,1771.8
699.876,1768.64
700.07,1765.35
700.264,1762.28
700.457,1759.09
700.651,1756.14
700.844,1753.29
701.038,1750.33
701.231,1747.41
701.425,1744.48
701.618,1741.72
701.812,1738.64
702.005,1735.44
702.199,1732.52
702.392,1729.82
702.586,1727.32
702.779,1724.3
702.972,1721.64
703.166,1719.05
703.359,1716.43
703.552,1713.38
703.746,1710.61
703.939,1708.1
704.132,1705.25
704.326,1702.7
704.519,1699.95
704.712,1697.33
704.905,1694.69
705.099,1692.08
705.292,1689.55
705.485,1687.16
705.678,1684.44
705.871,1681.7
706.064,1679.13
706.258,1676.63
706.451,1673.98
706.644,1671.61
706.837,1669.52
707.03,1667.49
707.223,1665.25
707.416,1663.06
707.609,1660.29
707.802,1658.3
707.995,1656.2
708.188,1654.12
708.381,1651.81
708.574,1649.92
708.767,1647.49
708.96,1645.19
709.153,1643.23
709.346,1641.69
709.539,1639.36
709.732,1637.52
709.924,1635.83
710.117,1634.25
710.31,1632.04
710.503,1630.33
710.696,1629.06
710.889,1627.4
711.081,1625.86
711.274,1624.47
711.467,1623.17
711.66,1621.59
711.852,1620.01
712.045,1618.71
712.238,1617.23
712.43,1616.07
712.623,1614.2
712.816,1612.74
713.008,1611.71
713.201,1610.63
713.394,1609.17
713.586,1608.14
713.779,1607.14
713.971,1606.24
714.164,1605.32
714.356,1604.36
714.549,1603.55
714.741,1602.77
714.934,1602.12
715.126,1601.47
715.319,1600.64
715.511,1599.67
715.704,1598.78
715.896,1598.43
716.088,1597.72
716.281,1597.15
716.473,1596.99
716.666,1596.38
716.858,1595.89
717.05,1595.56
717.243,1595.26
717.435,1595.11
717.627,1594.98
717.819,1594.98
718.012,1594.95
718.204,1595
718.396,1595.52
718.588,1595.8
718.781,1596.06
718.973,1596.63
719.165,1596.73
719.357,1597.13
719.549,1597.3
719.741,1597.79
719.934,1598.25
720.126,1598.82
720.318,1599.52
720.51,1600.24
720.702,1601.16
720.894,1602.12
721.086,1603.45
721.278,1604.49
721.47,1605.69
721.662,1606.75
721.854,1608.5
722.046,1609.8
722.238,1611.22
722.43,1612.88
722.622,1614.67
722.814,1615.97
723.005,1617.53
723.197,1619.35
723.389,1620.85
723.581,1623.18
723.773,1624.9
723.965,1626.99
724.156,1629.03
724.348,1631.12
724.54,1633.25
724.732,1635.35
724.923,1637.56
725.115,1640.25
725.307,1642.78
725.499,1645.61
725.69,1648.13
725.882,1651.24
726.074,1654
726.265,1657.29
726.457,1660.14
726.648,1663.47
726.84,1666.38
727.032,1669.98
727.223,1673.18
727.415,1676.7
727.606,1680.48
727.798,1684.35
727.989,1687.88
728.181,1691.76
728.372,1695.9
728.564,1699.7
728.755,1703.89
728.947,1708.05
729.138,1712.19
729.329,1716.82
729.521,1721.42
729.712,1726.01
729.904,1730.73
730.095,1735.87
730.286,1740.93
730.478,1745.89
730.669,1751.26
730.86,1757.02
731.051,1762.3
731.243,1767.64
731.434,1773.48
731.625,1779.6
731.816,1785.26
732.008,1791.46
732.199,1797.78
732.39,1804.3
732.581,1810.44
732.772,1816.54
732.963,1823.25
733.154,1829.87
733.346,1836.36
733.537,1843.33
733.728,1849.92
733.919,1857.08
734.11,1864.51
734.301,1871.76
734.492,1879.28
734.683,1886.82
734.874,1894.6
735.065,1902.51
735.256,1910.48
735.447,1918.61
735.638,1927.33
735.829,1935.59
736.019,1944.15
736.21,1953.24
736.401,1962.08
736.592,1971.04
736.783,1980.2
736.974,1989.82
737.164,1998.77
737.355,2008.79
737.546,2018.45
737.737,2028.24
737.928,2037.86
738.118,2048.07
738.309,2058.57
738.5,2069.13
738.69,2079.53
738.881,2090.2
739.072,2100.96
739.262,2111.91
739.453,2122.8
739.644,2133.86
739.834,2144.88
740.025,2156.7
740.215,2168.39
740.406,2180.26
740.596,2192.06
740.787,2204
740.978,2216.17
741.168,2228.41
741.358,2240.86
741.549,2253.6
741.739,2265.79
741.93,2278.53
742.12,2291.33
742.311,2304.54
742.501,2317.52
742.691,2330.75
742.882,2344.37
743.072,2357.72
743.263,2371.2
743.453,2384.76
743.643,2398.48
743.833,2412.49
744.024,2426.18
744.214,2440.55
744.404,2454.48
744.594,2468.94
744.785,2483.42
744.975,2497.87
745.165,2512.47
745.355,2526.89
745.545,2541.36
745.736,2556.41
745.926,2571.11
746.116,2586.45
746.306,2601.42
746.496,2616.53
746.686,2631.9
746.876,2647.28
747.066,2662.45
747.256,2678.73
747.446,2694.36
747.636,2710.08
747.826,2725.57
748.016,2741.73
748.206,2757.73
748.396,2773.79
748.586,2789.76
748.776,2806.31
748.966,2822.19
749.156,2838.51
749.346,2854.6
749.535,2870.95
749.725,2887.39
749.915,2903.85
750.105,2920.45
750.295,2937.18
750.484,2953.54
750.674,2970.55
750.864,2987.08
751.054,3004.33
751.243,3020.85
751.433,3037.76
751.623,3054.24
751.812,3071.16
752.002,3088.17
752.192,3105.05
752.381,3121.76
752.571,3138.58
752.761,3155.66
752.95,3172.75
753.14,3189.35
753.329,3206.49
753.519,3223.33
753.708,3240.95
753.898,3258
754.087,3275
754.277,3291.81
754.466,3309.18
754.656,3326.19
754.845,3343.23
755.035,3360.28
755.224,3377.75
755.413,3394.85
755.603,3412.06
755.792,3428.74
755.982,3445.98
756.171,3462.7
756.36,3479.9
756.549,3496.48
756.739,3513.36
756.928,3530.56
757.117,3547.58
757.307,3564.38
757.496,3581.24
757.685,3597.96
757.874,3615.02
758.063,3631.64
758.253,3648.33
758.442,3664.59
758.631,3680.82
758.82,3697.41
759.009,3713.8
759.198,3730.06
759.387,3746.18
759.576,3762.52
759.765,3778.65
759.954,3794.78
760.143,3810.37
760.332,3825.9
760.521,3842.18
760.71,3857.73
760.899,3873.43
761.088,3889.27
761.277,3905.07
761.466,3920.23
761.655,3935.91
761.844,3951.13
762.033,3967.2
762.222,3982.05
762.411,3997.04
762.599,4012.32
762.788,4027.45
762.977,4042.19
763.166,4057.17
763.355,4071.93
763.543,4086.88
763.732,4101.87
763.921,4116.43
764.109,4130.74
764.298,4144.85
764.487,4158.74
764.675,4173.06
764.864,4186.81
765.053,4200.73
765.241,4214.1
765.43,4227.33
765.619,4240.62
765.807,4253.89
765.996,4266.57
766.184,4279.81
766.373,4292.8
766.561,4305.5
766.75,4318.17
766.938,4330.55
767.127,4343.28
767.315,4355.88
767.504,4367.99
767.692,4379.93
767.881,4391.97
768.069,4404.08
768.257,4415.33
768.446,4426.77
768.634,4438.39
768.822,4449.3
769.011,4460.25
769.199,4471.35
769.387,4482.31
769.576,4492.79
769.764,4502.74
769.952,4512.97
770.14,4522.87
770.328,4532.51
770.517,4542.36
770.705,4552.42
770.893,4562.11
771.081,4571.57
771.269,4580.61
771.457,4589.93
771.646,4598.69
771.834,4608.14
772.022,4616.73
772.21,4624.69
772.398,4632.94
772.586,4640.93
772.774,4648.95
772.962,4656.63
773.15,4664.12
773.338,4671.34
773.526,4678.26
773.714,4685.22
773.902,4692.32
774.09,4699.31
774.278,4705.43
774.465,4711.79
774.653,4717.73
774.841,4723.56
775.029,4728.78
775.217,4734.51
775.405,4739.29
775.592,4744.63
775.78,4749.64
775.968,4754.75
776.156,4758.98
776.343,4763.14
776.531,4767.05
776.719,4771.26
776.907,4774.96
777.094,4778.45
777.282,4781.49
777.47,4784.82
777.657,4787.94
777.845,4791.04
778.032,4793.54
778.22,4795.93
778.408,4797.95
778.595,4799.86
778.783,4801.79
778.97,4803.31
779.158,4804.41
779.345,4805.72
779.533,4806.86
779.72,4807.96
779.908,4808.5
780.095,4809.01
780.282,4809.26
780.47,4809.3
780.657,4809.21
780.845,4808.62
781.032,4808.19
781.219,4807.95
781.407,4807.34
781.594,4806.6
781.781,4805.33
781.969,4804.19
782.156,4802.45
782.343,4801.18
782.53,4799.65
782.718,4797.93
782.905,4796.15
783.092,4794
783.279,4791.86
783.466,4789.87
783.653,4787.27
783.841,4785.46
784.028,4782.3
784.215,4779.62
784.402,4776.9
784.589,4773.5
784.776,4770.27
784.963,4767.07
785.15,4762.99
785.337,4759.5
785.524,4755.53
785.711,4751.62
785.898,4747.72
786.085,4743.59
786.272,4739.18
786.459,4735.04
786.646,4730.46
786.833,4726.32
787.02,4721.58
787.206,4717.29
787.393,4712.62
787.58,4707.8
787.767,4702.72
787.954,4697.67
788.14,4692.68
788.327,4687.91
788.514,4682.4
788.701,4677.22
788.887,4671.29
789.074,4666.67
789.261,4661.01
789.448,4655.58
789.634,4650.26
789.821,4644.59
790.008,4638.84
790.194,4633.46
790.381,4628.29
790.567,4622.69
790.754,4617.03
790.94,4611.78
791.127,4605.77
791.314,4600.36
791.5,4593.79
791.687,4588.3
791.873,4582.7
792.059,4577.27
792.246,4571.22
792.432,4565.35
792.619,4559.29
792.805,4553.64
792.992,4546.99
793.178,4540.67
793.364,4534.63
793.551,4529.09
793.737,4522.78
793.923,4516.94
794.11,4510.96
794.296,4505.67
794.482,4499.46
794.668,4493.15
794.855,4486.97
795.041,4481.04
795.227,4475.05
795.413,4469.1
795.599,4463.2
795.786,4457.34
795.972,4450.97
796.158,4445.28
796.344,4439.47
796.53,4434.02
796.716,4427.73
796.902,4421.87
797.088,4415.69
797.274,4409.53
797.46,4403.58
797.646,4397.52
797.832,4391.86
798.018,4386.35
798.204,4380.22
798.39,4374.39
798.576,4368.32
798.762,4362.58
798.948,4356.66
799.134,4351.65
799.32,4345.64
799.506,4340.11
799.692,4333.91
799.877,4328.59
800.063,4323.09
800.249,4317.66
800.435,4312.03
800.621,4306.55
800.806,4301.12
800.992,4295.25
801.178,4289.26
801.363,4283.04
801.549,4277.6
801.735,4272.22
801.92,4266.98
802.106,4261.8
802.292,4256.2
802.477,4250.95
802.663,4245.49
802.849,4240.33
803.034,4235.51
803.22,4230.58
803.405,4225.2
803.591,4220.73
803.776,4215.47
803.962,4210.52
804.147,4205.48
804.333,4200.47
804.518,4195.76
804.703,4190.69
804.889,4185.53
805.074,4180.84
805.26,4175.8
805.445,4170.86
805.63,4165.6
805.816,4161.56
806.001,4156.49
806.186,4151.86
806.372,4147.17
806.557,4142.39
806.742,4137.49
806.927,4132.97
807.113,4128.48
807.298,4124.13
807.483,4119.46
807.668,4114.95
807.853,4110.59
808.039,4105.94
808.224,4101.04
808.409,4096.73
808.594,4091.87
808.779,4087.5
808.964,4082.55
809.149,4078.12
809.334,4073.13
809.519,4068.85
809.704,4064.6
809.889,4060.2
810.074,4055.94
810.259,4051.85
810.444,4047.48
810.629,4043.26
810.814,4039.01
810.999,4035.05
811.184,4030.4
811.369,4026.07
811.554,4021.58
811.738,4017.7
811.923,4013.33
812.108,4008.95
812.293,4004.54
812.478,4000.98
812.662,3996.71
812.847,3992.92
813.032,3988.88
813.217,3984.86
813.401,3980.59
813.586,3977.03
813.771,3973.16
813.955,3969.14
814.14,3965.1
814.325,3961.34
814.509,3957.36
814.694,3953.75
814.878,3950.07
815.063,3946.25
815.248,3942.18
815.432,3938.36
815.617,3934.7
815.801,3931.45
815.986,3928.05
816.17,3924.35
816.355,3920.93
816.539,3917.55
816.723,3914.05
816.908,3910.03
817.092,3906.61
817.277,3903.01
817.461,3899.98
817.645,3896.51
817.83,3893.11
818.014,3889.94
818.198,3886.62
818.383,3883.68
818.567,3880.12
818.751,3876.71
818.935,3873.22
819.12,3870.34
819.304,3867.03
819.488,3864.05
819.672,3860.74
819.856,3857.19
820.041,3854.01
820.225,3850.66
820.409,3847.48
820.593,3844.48
820.777,3841.44
820.961,3838.37
821.145,3834.73
821.329,3832.13
821.513,3828.82
821.697,3825.47
821.881,3822.4
822.065,3819.39
822.249,3816.15
822.433,3813.11
822.617,3810.12
822.801,3807.13
822.985,3804.23
823.169,3801.11
823.353,3797.89
823.536,3795.27
823.72,3791.94
823.904,3788.71
824.088,3785.53
824.272,3782.3
824.456,3778.93
824.639,3775.84
824.823,3772.46
825.007,3769.08
825.19,3765.76
825.374,3762.67
825.558,3759.42
825.742,3756.24
825.925,3752.96
826.109,3750.02
826.292,3746
826.476,3742.74
826.66,3739.29
826.843,3735.85
827.027,3732.31
827.21,3729.11
827.394,3725.31
827.577,3721.38
827.761,3717.62
827.944,3713.6
828.128,3709.72
828.311,3705.82
828.495,3701.54
828.678,3697.67
828.862,3693.38
829.045,3689.58
829.228,3685.27
829.412,3681.15
829.595,3677.01
829.778,3673.23
829.962,3669.02
830.145,3665.12
830.328,3661.26
830.512,3656.8
830.695,3652.11
830.878,3647.96
831.061,3643.51
831.244,3638.99
831.428,3633.98
831.611,3629.67
831.794,3625.34
831.977,3621
832.16,3616.51
832.343,3612.05
832.526,3607.71
832.709,3603.09
832.893,3598.54
833.076,3594.4
833.259,3589.96
833.442,3585.5
833.625,3580.34
833.808,3576.17
833.991,3571.42
834.174,3567.22
834.356,3562.84
834.539,3558.04
834.722,3553.75
834.905,3548.95
835.088,3544.3
835.271,3539.7
835.454,3535.43
835.637,3530.82
835.819,3526.16
836.002,3521.42
836.185,3516.27
836.368,3512.02
836.551,3507.07
836.733,3502.09
836.916,3497.02
837.099,3491.93
837.281,3486.85
837.464,3482.11
837.647,3477.08
837.829,3472.06
838.012,3467.13
838.195,3462.21
838.377,3457.19
838.56,3452.07
838.742,3446.56
838.925,3441.61
839.107,3435.98
839.29,3430.8
839.472,3425.33
839.655,3420.25
839.837,3414.93
840.02,3409.65
840.202,3404.2
840.385,3399.19
840.567,3393.45
840.749,3388.64
840.932,3383.54
841.114,3378.14
841.297,3372.75
841.479,3367.36
841.661,3361.87
841.843,3356.54
842.026,3351.02
842.208,3345.86
842.39,3340.48
842.572,3335.36
842.755,3329.57
842.937,3324.42
843.119,3318.58
843.301,3313.05
843.483,3307.52
843.666,3302.37
843.848,3296.8
844.03,3290.96
844.212,3285.51
844.394,3280.18
844.576,3274.47
844.758,3268.83
844.94,3263.12
845.122,3257.92
845.304,3252.52
845.486,3247.43
845.668,3242.14
845.85,3236.84
846.032,3231.27
846.214,3226.21
846.396,3220.34
846.578,3214.89
846.759,3209.34
846.941,3203.47
847.123,3197.6
847.305,3192
847.487,3186.6
847.669,3181.19
847.85,3175.59
848.032,3170.23
848.214,3164.55
848.396,3158.98
848.577,3153.3
848.759,3148.09
848.941,3142.73
849.122,3137.39
849.304,3131.53
849.486,3126.36
849.667,3121.04
849.849,3115.59
850.03,3110.22
850.212,3104.99
850.394,3099.15
850.575,3093.55
850.757,3088.4
850.938,3083.09
851.12,3077.73
851.301,3072.74
851.483,3067.31
851.664,3061.83
851.845,3056.52
852.027,3051.44
852.208,3046.15
852.39,3040.83
852.571,3035.38
852.752,3030.08
852.934,3025.2
853.115,3019.91
853.296,3014.87
853.478,3010.07
853.659,3004.99
853.84,2999.83
854.021,2994.88
854.203,2989.49
854.384,2984.63
854.565,2979.62
854.746,2974.42
854.927,2969.56
855.108,2964.55
855.29,2959.81
855.471,2954.7
855.652,2950.17
855.833,2945.25
856.014,2940.56
856.195,2935.56
856.376,2931.02
856.557,2926.46
856.738,2921.86
856.919,2917.13
857.1,2912.42
857.281,2907.31
857.462,2902.55
857.643,2897.53
857.824,2893.02
858.005,2888.17
858.185,2883.63
858.366,2879.39
858.547,2874.87
858.728,2870.53
858.909,2866.08
859.09,2861.75
859.27,2857.39
859.451,2853.16
859.632,2848.64
859.813,2844.1
859.993,2839.87
860.174,2835.76
860.355,2831.41
860.535,2827.16
860.716,2822.61
860.897,2818.4
861.077,2814.16
861.258,2809.75
861.438,2805.7
861.619,2801.8
861.8,2797.82
861.98,2793.31
862.161,2788.98
862.341,2785.13
862.522,2781.16
862.702,2776.8
862.883,2773.26
863.063,2769.24
863.243,2765.44
863.424,2761.47
863.604,2757.46
863.785,2753.08
863.965,2749.51
864.145,2745.76
864.326,2741.92
864.506,2738.15
864.686,2734.6
864.867,2731.04
865.047,2727.33
865.227,2723.8
865.407,2720.39
865.588,2716.64
865.768,2712.92
865.948,2708.95
866.128,2705.4
866.308,2701.41
866.488,2698.13
866.669,2694.73
866.849,2691.13
867.029,2687.86
867.209,2684.41
867.389,2680.77
867.569,2677.42
867.749,2673.45
867.929,2670.14
868.109,2666.54
868.289,2663.09
868.469,2659.25
868.649,2655.63
868.829,2651.92
869.009,2648.35
869.189,2644.48
869.369,2640.95
869.548,2637.07
869.728,2633.41
869.908,2629.68
870.088,2625.95
870.268,2622.29
870.448,2618.86
870.627,2615.02
870.807,2611.53
870.987,2608.07
871.167,2604.37
871.346,2600.8
871.526,2596.94
871.706,2593.25
871.885,2589.56
872.065,2585.93
872.245,2582.13
872.424,2578.42
872.604,2575.12
872.783,2571.09
872.963,2567.47
873.142,2563.8
873.322,2560.56
873.501,2557
873.681,2553.31
873.86,2549.33
874.04,2545.91
874.219,2542.27
874.399,2538.92
874.578,2535.29
874.758,2531.92
874.937,2528.31
875.116,2525.19
875.296,2521.28
875.475,2518.2
875.654,2514.7
875.834,2511.41
876.013,2507.52
876.192,2504.16
876.372,2500.56
876.551,2497.18
876.73,2493.63
876.909,2490.6
877.088,2486.9
877.268,2483.43
877.447,2479.64
877.626,2476.38
877.805,2472.52
877.984,2469.2
878.163,2465.87
878.342,2462.33
878.521,2458.75
878.7,2454.99
878.879,2451.55
879.059,2448.18
879.238,2444.56
879.417,2440.95
879.595,2437.47
879.774,2433.88
879.953,2430.12
880.132,2426.47
880.311,2422.86
880.49,2419.38
880.669,2415.62
880.848,2412.2
881.027,2408.57
881.205,2405.11
881.384,2401.16
881.563,2397.31
881.742,2393.5
881.921,2389.76
882.099,2386.46
882.278,2383.02
882.457,2379.07
882.635,2375.64
882.814,2372.02
882.993,2368.45
883.171,2364.93
883.35,2361.17
883.529,2357.63
883.707,2354.16
883.886,2350.9
884.064,2347.24
884.243,2343.55
884.422,2339.94
884.6,2336.38
884.779,2332.95
884.957,2328.91
885.136,2325.32
885.314,2321.36
885.492,2317.93
885.671,2314.11
885.849,2310.29
886.028,2306.34
886.206,2302.37
886.384,2298.4
886.563,2294.7
886.741,2291.28
886.919,2287.23
887.098,2283.46
887.276,2279.44
887.454,2275.56
887.632,2271.83
887.811,2267.85
887.989,2263.82
888.167,2259.8
888.345,2256.16
888.523,2252.03
888.702,2248.11
888.88,2244.12
889.058,2239.8
889.236,2235.86
889.414,2231.74
889.592,2227.42
889.77,2223.37
889.948,2219.33
890.126,2215.28
890.304,2211.14
890.482,2206.92
890.66,2202.68
890.838,2198.51
891.016,2194.06
891.194,2189.82
891.372,2185.32
891.55,2181.13
891.728,2176.39
891.905,2171.94
892.083,2167.3
892.261,2162.97
892.439,2158.59
892.617,2154.09
892.794,2149.35
892.972,2144.88
893.15,2140.35
893.328,2136.24
893.505,2131.34
893.683,2126.99
893.861,2122.32
894.038,2117.86
894.216,2113.34
894.394,2108.57
894.571,2103.93
894.749,2099.25
894.926,2094.36
895.104,2089.59
895.281,2084.7
895.459,2079.61
895.637,2074.8
895.814,2069.95
895.992,2065.22
896.169,2059.88
896.346,2054.95
896.524,2050.03
896.701,2045.21
896.879,2040.19
897.056,2035.11
897.233,2030.11
897.411,2025.23
897.588,2020.1
897.765,2014.67
897.943,2009.67
898.12,2004.69
898.297,1999.51
898.475,1994
898.652,1989.25
898.829,1983.89
899.006,1978.56
899.183,1972.99
899.361,1967.62
899.538,1962.46
899.715,1957.47
899.892,1952.17
900.069,1946.85
900.246,1941.54
900.423,1936.31
900.6,1930.54
900.777,1925.42
900.954,1920.05
901.131,1914.77
901.308,1909.11
901.485,1903.6
901.662,1898.19
901.839,1893.12
902.016,1887.5
902.193,1882.09
902.37,1876.39
902.547,1870.81
902.724,1865.38
902.9,1859.72
903.077,1854.16
903.254,1848.8
903.431,1843.3
903.608,1838.13
903.784,1832.51
903.961,1827.01
904.138,1821.11
904.315,1815.91
904.491,1810.18
904.668,1804.87
904.845,1799.2
905.021,1793.75
905.198,1788.34
905.375,1782.85
905.551,1777.31
905.728,1771.91
905.904,1766.49
906.081,1760.89
906.257,1755.07
906.434,1749.59
906.61,1743.69
906.787,1738.07
906.963,1732.37
907.14,1726.81
907.316,1721.12
907.493,1715.57
907.669,1709.74
907.845,1704.3
908.022,1699.01
908.198,1693.51
908.374,1687.62
908.551,1681.96
908.727,1676.73
908.903,1671.32
909.08,1665.66
909.256,1660.24
909.432,1654.94
909.608,1649.62
909.785,1644.08
909.961,1638.51
910.137,1632.9
910.313,1627.62
910.489,1622.26
910.665,1616.83
910.841,1611.07
911.018,1605.79
911.194,1599.99
911.37,1594.63
911.546,1589.05
911.722,1583.77
911.898,1578.28
912.074,1572.9
912.25,1567.26
912.426,1561.84
912.602,1556.25
912.777,1550.88
912.953,1545.49
913.129,1540.57
913.305,1535.21
913.481,1530
913.657,1524.69
913.833,1519.4
914.008,1514.24
914.184,1508.9
914.36,1503.93
914.536,1498.56
914.712,1493.06
914.887,1488.03
915.063,1482.91
915.239,1478.15
915.414,1473.06
915.59,1467.95
915.766,1462.91
915.941,1458.19
916.117,1452.85
916.292,1448.09
916.468,1443.27
916.644,1438.44
916.819,1433.39
916.995,1428.92
917.17,1423.93
917.346,1419.12
917.521,1414.28
917.697,1409.08
917.872,1404.2
918.048,1399.5
918.223,1394.44
918.398,1390.03
918.574,1385.19
918.749,1380.66
918.924,1375.93
919.1,1371.05
919.275,1366.12
919.45,1361.12
919.626,1356.51
919.801,1351.77
919.976,1347.08
920.151,1342.58
920.327,1337.7
920.502,1333.19
920.677,1328.48
920.852,1324.07
921.027,1319.22
921.202,1314.56
921.378,1309.94
921.553,1305.48
921.728,1301.14
921.903,1296.8
922.078,1292.23
922.253,1287.45
922.428,1283.21
922.603,1278.95
922.778,1274.69
922.953,1270.32
923.128,1265.77
923.303,1261.5
923.478,1257.67
923.652,1253.68
923.827,1249.13
924.002,1244.89
924.177,1240.48
924.352,1236.18
924.527,1231.91
924.702,1227.63
924.876,1223.37
925.051,1219.11
925.226,1214.96
925.401,1210.58
925.575,1206.51
925.75,1202.83
925.925,1198.57
926.099,1194.32
926.274,1190.28
926.449,1186.46
926.623,1182.43
926.798,1178.39
926.972,1174.63
927.147,1170.94
927.322,1166.83
927.496,1163.12
927.671,1159.3
927.845,1155.33
928.02,1151.17
928.194,1147.53
928.368,1143.59
928.543,1139.6
928.717,1135.57
928.892,1131.79
929.066,1127.88
929.24,1124.12
929.415,1120.1
929.589,1116.31
929.763,1112.38
929.938,1108.65
930.112,1104.89
930.286,1101.35
930.461,1097.76
930.635,1093.89
930.809,1090.22
930.983,1086.61
931.157,1082.89
931.332,1079.22
931.506,1075.77
931.68,1072.28
931.854,1068.91
932.028,1065.39
932.202,1061.91
932.376,1058.67
932.55,1055.24
932.724,1051.35
932.898,1047.89
933.072,1044.63
933.246,1041.48
933.42,1037.88
933.594,1034.18
933.768,1030.92
933.942,1027.25
934.116,1023.88
934.29,1020.55
934.464,1017.64
934.638,1014.45
934.811,1011.19
934.985,1007.78
935.159,1004.27
935.333,1000.95
935.507,997.65
935.68,994.185
935.854,991.012
936.028,987.648
936.201,984.628
936.375,981.636
936.549,978.606
936.722,975.581
936.896,972.481
937.07,969.136
937.243,966.478
937.417,963.585
937.59,960.447
937.764,957.32
937.938,954.264
938.111,951.164
938.285,948.426
938.458,945.274
938.631,942.425
938.805,939.502
938.978,936.594
939.152,933.651
939.325,931.186
939.499,928.27
939.672,925.457
939.845,922.535
940.019,919.648
940.192,916.855
940.365,913.795
940.538,911.175
940.712,908.473
940.885,905.701
941.058,903.193
941.231,900.672
941.405,898.11
941.578,895.169
941.751,892.539
941.924,889.891
942.097,887.138
942.27,884.542
942.443,882.317
942.617,879.682
942.79,877.393
942.963,874.661
943.136,872.036
943.309,869.42
943.482,866.858
943.655,864.545
943.828,861.679
944.001,859.131
944.173,856.583
944.346,854.06
944.519,851.341
944.692,848.886
944.865,846.301
945.038,844.064
945.211,841.566
945.383,838.903
945.556,836.345
945.729,833.962
945.902,831.669
946.075,829.208
946.247,826.945
946.42,824.561
946.593,822.3
946.765,819.911
946.938,817.498
947.111,815.311
947.283,813.183
947.456,810.598
947.628,808.05
947.801,806.008
947.974,803.371
948.146,800.836
948.319,798.266
948.491,796.385
948.664,793.982
948.836,791.593
949.009,789.52
949.181,787.286
949.353,784.974
949.526,782.589
949.698,780.476
949.871,778.216
950.043,775.989
950.215,773.505
950.388,771.176
950.56,769.241
950.732,767.048
950.904,764.724
951.077,762.856
951.249,760.745
951.421,758.495
951.593,756.472
951.766,754.501
951.938,752.447
952.11,750.376
952.282,748.284
952.454,746.081
952.626,744.293
952.798,742.306
952.97,740.074
953.142,738.173
953.314,735.693
953.487,733.647
953.659,731.586
953.83,729.636
954.002,727.554
954.174,725.477
954.346,723.315
954.518,721.259
954.69,719.342
954.862,717.527
955.034,715.503
955.206,713.678
955.378,711.686
955.549,709.811
955.721,707.569
955.893,705.61
956.065,703.656
956.236,702.041
956.408,700.267
956.58,698.224
956.752,696.179
956.923,694.546
957.095,692.667
957.267,690.758
957.438,688.63
957.61,686.577
957.781,684.473
957.953,682.583
958.125,680.688
958.296,678.544
958.468,676.601
958.639,674.73
958.811,673.07
958.982,671.483
959.154,669.714
959.325,667.84
959.496,665.916
959.668,664.024
959.839,662.289
960.011,660.502
960.182,659.005
960.353,657.151
960.525,654.971
960.696,653.104
960.867,651.622
961.038,650.001
961.21,648.414
961.381,646.434
961.552,644.83
961.723,642.962
961.895,641.071
962.066,639.164
962.237,637.604
962.408,635.861
962.579,634.096
962.75,632.5
962.921,630.845
963.092,629.347
963.263,627.633
963.434,625.867
963.605,624.105
963.776,622.25
963.947,620.485
964.118,618.762
964.289,616.903
964.46,615.249
964.631,613.426
964.802,611.609
964.973,609.968
965.144,608.063
965.315,606.456
965.485,604.733
965.656,603.043
965.827,601.491
965.998,599.578
966.169,597.705
966.339,596.268
966.51,594.493
966.681,593.074
966.851,591.587
967.022,589.546
967.193,587.767
967.363,586.475
967.534,584.607
967.705,583.156
967.875,581.358
968.046,579.783
968.216,578.229
968.387,576.928
968.557,575.199
968.728,573.725
968.898,572.371
969.069,570.631
969.239,569.134
969.41,567.677
969.58,566.137
969.751,564.54
969.921,563.268
970.091,561.813
970.262,560.611
970.432,559.278
970.602,557.869
970.773,556.294
970.943,554.693
971.113,553.421
971.283,551.717
971.454,550.17
971.624,549.075
971.794,547.436
971.964,545.937
972.134,544.247
972.305,542.873
972.475,541.489
972.645,540.015
972.815,538.486
972.985,537.238
973.155,535.475
973.325,534.074
973.495,532.598
973.665,531.25
973.835,529.44
974.005,527.918
974.175,526.5
974.345,524.774
974.515,523.39
974.685,521.93
974.855,520.591
975.024,519.277
975.194,517.386
975.364,515.714
975.534,514.061
975.704,512.359
975.874,510.807
976.043,509.431
976.213,507.923
976.383,506.438
976.553,505.084
976.722,504.04
976.892,502.448
977.062,501.049
977.231,499.188
977.401,498.055
977.57,496.412
977.74,495.067
977.91,493.528
978.079,492.168
978.249,490.701
978.418,489.263
978.588,487.813
978.757,486.523
978.927,485.295
979.096,483.723
979.266,482.527
979.435,481.053
979.604,479.993
979.774,478.79
979.943,477.408
980.113,476.01
980.282,474.539
980.451,473.048
980.621,471.788
980.79,470.26
980.959,468.875
981.128,467.493
981.298,466.141
981.467,464.576
981.636,463.091
981.805,461.971
981.974,460.801
982.143,459.039
982.313,457.684
982.482,456.33
982.651,455.07
982.82,453.597
982.989,452.379
983.158,450.974
983.327,449.495
983.496,448.258
983.665,446.807
983.834,445.475
984.003,444.202
984.172,442.807
984.341,441.577
984.51,440.222
984.679,438.922
984.847,437.306
985.016,435.921
985.185,434.562
985.354,433.035
985.523,431.629
985.692,430.471
985.86,429.057
986.029,427.723
986.198,426.239
986.366,424.906
986.535,423.457
986.704,422.25
986.873,420.802
987.041,419.419
987.21,418.137
987.378,416.924
987.547,415.898
987.716,414.516
987.884,412.904
988.053,411.765
988.221,410.605
988.39,409.683
988.558,408.348
988.727,406.863
988.895,405.52
989.064,404.066
989.232,402.701
989.4,401.427
989.569,400.163
989.737,399.021
989.905,397.957
990.074,396.779
990.242,395.541
990.41,393.962
990.579,392.544
990.747,391.221
990.915,390.07
991.083,388.65
991.252,387.418
991.42,386.218
991.588,385.126
991.756,384.135
991.924,383
992.092,381.787
992.261,380.724
992.429,379.525
992.597,378.351
992.765,377.203
992.933,375.834
993.101,374.269
993.269,373.038
993.437,371.793
993.605,370.661
993.773,369.54
993.941,367.986
994.109,366.968
994.277,365.638
994.444,364.301
994.612,363.166
994.78,362.201
994.948,360.876
995.116,359.588
995.284,358.04
995.451,356.875
995.619,355.768
995.787,354.528
995.955,353.424
996.122,352.515
996.29,351.478
996.458,350.376
996.625,349.341
996.793,348.272
996.961,347.037
997.128,345.607
997.296,344.522
997.463,343.395
997.631,342.353
997.798,341.52
997.966,340.579
998.133,339.554
998.301,338.815
998.468,337.967
998.636,337.024
998.803,335.808
998.971,334.831
999.138,333.817
999.305,332.813
999.473,332.083
999.64,331.197
999.807,330.171
999.975,329.274
1000.14,328.188
1000.31,326.962
1000.48,326.141
1000.64,324.844
1000.81,323.633
1000.98,322.9
1001.15,322.055
1001.31,320.708
1001.48,319.794
1001.65,318.432
1001.81,317.232
1001.98,316.412
1002.15,315.588
1002.32,314.621
1002.48,313.865
1002.65,312.719
1002.82,311.578
1002.98,310.478
1003.15,309.41
1003.32,308.225
1003.48,307.248
1003.65,306.439
1003.82,305.033
1003.98,304.048
1004.15,302.754
1004.32,301.682
1004.49,300.376
1004.65,299.504
1004.82,298.356
1004.99,297.128
1005.15,296.533
1005.32,295.446
1005.49,294.157
1005.65,293.215
1005.82,291.882
1005.99,291.04
1006.15,289.941
1006.32,288.575
1006.49,287.779
1006.65,286.734
1006.82,285.558
1006.99,284.493
1007.15,283.602
1007.32,282.507
1007.49,281.311
1007.65,280.487
1007.82,279.475
1007.98,278.823
1008.15,278.089
1008.32,277.215
1008.48,276.389
1008.65,275.538
1008.82,274.764
1008.98,274.033
1009.15,273.4
1009.32,272.62
1009.48,271.586
1009.65,270.881
1009.81,270.102
1009.98,269.239
1010.15,268.322
1010.31,267.269
1010.48,265.938
1010.65,265.159
1010.81,264.303
1010.98,263.617
1011.14,262.484
1011.31,261.744
1011.48,260.89
1011.64,259.97
1011.81,258.891
1011.97,258.108
1012.14,257.201
1012.31,256.23
1012.47,255.164
1012.64,253.978
1012.8,252.994
1012.97,251.946
1013.14,250.813
1013.3,250.027
1013.47,249.077
1013.63,248.263
1013.8,247.323
1013.97,246.42
1014.13,245.811
1014.3,244.726
1014.46,243.725
1014.63,242.603
1014.79,241.955
1014.96,241.299
1015.13,240.718
1015.29,239.882
1015.46,238.855
1015.62,237.952
1015.79,237.041
1015.95,236.303
1016.12,235.476
1016.29,234.623
1016.45,233.785
1016.62,232.713
1016.78,231.951
1016.95,231.096
1017.11,230.335
1017.28,229.52
1017.44,228.851
1017.61,228.151
1017.78,227.396
1017.94,226.494
1018.11,225.971
1018.27,225.207
1018.44,224.408
1018.6,223.626
1018.77,222.656
1018.93,221.902
1019.1,220.876
1019.26,219.721
1019.43,218.892
1019.59,218.029
1019.76,217.139
1019.92,216.249
1020.09,215.612
1020.25,214.843
1020.42,214.135
1020.59,213.264
1020.75,212.303
1020.92,211.543
1021.08,210.632
1021.25,210.155
1021.41,209.862
1021.58,209.225
1021.74,208.559
1021.91,207.537
1022.07,206.873
1022.24,206.068
1022.4,205.483
1022.57,204.61
1022.73,203.994
1022.89,203.003
1023.06,202.459
1023.22,201.554
1023.39,200.912
1023.55,200.232
1023.72,199.596
1023.88,199.06
1024.05,198.375
1024.21,197.81
1024.38,197.089
1024.54,196.475
1024.71,195.89
1024.87,195.068
1025.04,194.107
1025.2,193.292
1025.37,192.824
1025.53,192.359
1025.7,191.569
1025.86,190.693
1026.02,189.73
1026.19,188.95
1026.35,188.428
1026.52,187.96
1026.68,187.402
1026.85,186.732
1027.01,186.351
1027.18,185.74
1027.34,185.367
1027.5,184.66
1027.67,168.153
1027.83,201.944
1028,188.837
1028.16,160.125
1028.33,171.348
1028.49,183.226
1028.65,174.747
1028.82,164.262
1028.98,160.821
1029.15,137.106
1029.31,140.055
1029.48,153.776
1029.64,143.495
1029.8,226.52
1029.97,178.188
1030.13,205.795
1030.3,150.09
1030.46,152.875
1030.62,189.657
1030.79,145.461
1030.95,115.971
1031.12,104.256
1031.28,180.195
1031.44,196.415
1031.61,205.426
1031.77,147.96
1031.94,146.772
1032.1,164.016
1032.26,140.178
1032.43,156.357
1032.59,144.192
1032.76,157.872
1032.92,193.056
1033.08,134.034
1033.25,157.913
1033.41,160.412
1033.57,175.198
1033.74,128.627
1033.9,162.091
1034.07,203.378
1034.23,178.598
1034.39,120.558
1034.56,215.625
1034.72,142.799
1034.88,149.844
1035.05,146.404
1035.21,119.862
1035.37,140.71
1035.54,125.146
1035.7,106.714
1035.86,150.499
1036.03,140.874
1036.19,140.874
1036.35,108.352
1036.52,161.108
1036.68,155.128
1036.84,166.351
1037.01,126.292
1037.17,111.015
1037.33,134.812
1037.5,138.867
1037.66,166.474
1037.82,187.158
1037.99,180.359
1038.15,156.52
1038.31,142.062
1038.48,122.934
1038.64,99.505
1038.8,154.104
1038.97,91.9275
1039.13,160.985
1039.29,96.474
1039.46,160.78
1039.62,128.873
1039.78,138.785
1039.95,149.148
1040.11,137.188
1040.27,158.896
1040.43,131.781
1040.6,133.624
1040.76,126.047
1040.92,131.699
1041.09,142.635
1041.25,132.846
1041.41,108.147
1041.57,131.945
1041.74,171.757
1041.9,152.588
1042.06,122.852
1042.23,103.97
1042.39,109.909
1042.55,126.661
1042.71,160.371
1042.88,138.048
1043.04,145.461
1043.2,107.246
1043.36,192.729
1043.53,138.294
1043.69,138.662
EndSpectrumFile,CALIBRATION
EndCalFile
