SpectrumFile,BASELINE
Version,1.000000
Location,
Customer,
SampleInfo,
GPSData,51.118491,-114.185425,1143.658447,1107,71211
SystemTime,2011,12,7,0,12,9,140
Pipe km,0.000000
Pre-Dilution Factor,1.000000
Freeform Info,
Concentration,0.000000
CalibrationName,USB4000 dark
Unique Calibration File ID,20110323-0226570968-TESTBOX2-7E963C-00008931
CalibrationWavelength,700.000000
CalibrationType,2,0.000000,0.616679
CalibrationRSquared,1.000000
CalibrationConcentrations [ppm],2,0.000000,10.000000
CalibrationCounts,2,0.000000,16.215900
CalibrationWarnLow,0.000000
CalibrationWarnHigh,10.000000
CalibrationErrorLow,0.000000
CalibrationErrorHigh,0.000000
Spectrometer Name,USB4000
Spectrometer Serial,USB4H02759
IntegrationTime [ms],50.000000
AveragedSpectra,50
BoxcarWidth,100
WavelengthRange [nm],346.775360,1043.690197
IntensityRange [counts],-129.206348,1140.416697
WavelengthCount,3648
Wavelength [nm],Intensity [counts]
346.775,-125.11
346.991,-125.11
347.206,-125.11
347.421,-129.206
347.637,-122.653
347.852,82.9223
348.067,35.2455
348.282,75.5086
348.498,49.6632
348.713,63.057
348.928,82.2669
349.143,84.0282
349.358,29.3884
349.574,58.8791
349.789,31.8869
350.004,115.198
350.219,40.2016
350.434,58.2647
350.649,65.5964
350.864,45.4854
351.079,80.9152
351.295,88.6156
351.51,27.6681
351.725,43.7651
351.94,13.2504
352.155,36.3514
352.37,83.6186
352.585,55.971
352.8,102.501
353.015,20.0496
353.23,86.7724
353.445,26.1526
353.66,40.5703
353.875,72.4367
354.09,103.361
354.305,33.1976
354.52,68.1359
354.735,49.0079
354.949,80.4237
355.164,95.2101
355.379,23.0806
355.594,73.9112
355.809,87.3049
356.024,75.2219
356.239,75.2219
356.453,90.213
356.668,55.7252
356.883,83.9053
357.098,98.1182
357.313,69.4466
357.527,73.8702
357.742,47.2876
357.957,46.7142
358.172,67.1529
358.386,68.8322
358.601,68.9141
358.816,104.795
359.03,51.1378
359.245,61.0909
359.46,117.082
359.674,70.7164
359.889,28.1186
360.104,87.9603
360.318,82.2259
360.533,52.8171
360.748,49.909
360.962,73.9522
361.177,46.837
361.391,69.2828
361.606,59.4935
361.82,73.6654
362.035,76.6555
362.25,54.8241
362.464,51.4655
362.679,122.776
362.893,68.9141
363.108,81.161
363.322,93.8994
363.536,61.0499
363.751,52.94
363.965,60.7223
364.18,75.14
364.394,71.7813
364.609,39.7511
364.823,69.9381
365.037,87.6326
365.252,60.026
365.466,36.3105
365.68,59.3297
365.895,62.4016
366.109,68.5046
366.323,56.6263
366.538,55.0699
366.752,38.9319
366.966,58.5514
367.181,53.1038
367.395,40.9799
367.609,35.9419
367.823,106.843
368.038,78.13
368.252,62.747
368.466,63.6573
368.68,64.7715
368.894,65.6875
369.109,66.4539
369.323,67.5354
369.537,67.3459
369.751,67.472
369.965,67.4855
370.179,67.6063
370.393,67.6456
370.607,67.62
370.822,67.7469
371.036,68.0291
371.25,67.9971
371.464,68.2943
371.678,68.1186
371.892,68.3234
372.106,68.2007
372.32,68.4775
372.534,68.6519
372.748,68.8231
372.962,68.8404
373.176,68.9973
373.39,69.1958
373.604,69.5361
373.818,69.78
374.031,69.6048
374.245,69.6842
374.459,69.5993
374.673,69.7413
374.887,69.7264
375.101,69.95
375.315,70.1507
375.529,70.1706
375.742,70.0074
375.956,70.1364
376.17,70.07
376.384,70.104
376.598,69.8996
376.811,69.7873
377.025,70.2515
377.239,70.4354
377.453,70.5116
377.666,70.5756
377.88,70.4309
378.094,70.7753
378.307,70.9472
378.521,71.0096
378.735,70.7702
378.948,70.7628
379.162,70.7667
379.376,70.9299
379.589,71.3348
379.803,71.3324
380.016,71.1749
380.23,71.3548
380.444,71.3102
380.657,71.3827
380.871,71.4471
381.084,71.2156
381.298,70.9676
381.511,70.9911
381.725,71.2195
381.938,71.3784
382.152,71.486
382.365,71.4673
382.579,71.4257
382.792,71.527
383.006,71.4993
383.219,71.626
383.433,71.6682
383.646,71.7126
383.859,71.6715
384.073,71.786
384.286,71.3363
384.5,71.3142
384.713,71.312
384.926,71.16
385.14,71.4703
385.353,71.5574
385.566,71.6177
385.779,71.558
385.993,71.5728
386.206,71.8054
386.419,71.7242
386.633,71.4636
386.846,71.7218
387.059,71.9317
387.272,72.0381
387.485,72.1927
387.699,72.112
387.912,72.2088
388.125,72.3549
388.338,72.7735
388.551,72.9926
388.764,73.1246
388.978,73.328
389.191,73.3916
389.404,73.3424
389.617,73.1193
389.83,73.0836
390.043,73.1756
390.256,72.9351
390.469,73.1108
390.682,72.9693
390.895,73.0003
391.108,72.8306
391.321,72.8024
391.534,72.4426
391.747,72.4894
391.96,72.0193
392.173,72.1827
392.386,72.5624
392.599,72.7018
392.812,73.0633
393.025,73.0669
393.238,73.0741
393.451,73.0368
393.663,72.8917
393.876,73.1393
394.089,72.9076
394.302,73.0814
394.515,73.0814
394.728,72.9975
394.941,73.0663
395.153,72.8381
395.366,72.768
395.579,72.8705
395.792,72.6732
396.004,72.8418
396.217,72.6842
396.43,72.8312
396.643,73.1819
396.855,72.9975
397.068,73.1065
397.281,73.1959
397.493,73.1556
397.706,73.0945
397.919,73.1279
398.131,73.3225
398.344,73.3017
398.557,73.1733
398.769,72.6902
398.982,72.8295
399.194,72.7617
399.407,72.8972
399.619,72.9712
399.832,73.0515
400.045,73.3025
400.257,73.8975
400.47,74.0447
400.682,74.3416
400.895,74.493
401.107,74.6654
401.319,74.7648
401.532,74.6904
401.744,74.8453
401.957,74.9556
402.169,74.7182
402.382,74.7931
402.594,74.806
402.806,75.1082
403.019,75.3091
403.231,75.195
403.444,75.0656
403.656,75.1471
403.868,75.3474
404.081,75.6025
404.293,75.8379
404.505,75.7538
404.717,75.7181
404.93,76.0079
405.142,75.8414
405.354,76.0431
405.566,76.2608
405.779,76.2781
405.991,76.1898
406.203,76.2985
406.415,76.2363
406.627,76.125
406.84,76.1599
407.052,76.7775
407.264,76.4702
407.476,76.4594
407.688,76.8372
407.9,76.8609
408.112,76.9937
408.324,77.2741
408.537,77.3501
408.749,77.7791
408.961,78.0689
409.173,78.3697
409.385,78.2845
409.597,78.0581
409.809,78.0585
410.021,78.1363
410.233,78.2564
410.445,78.1549
410.657,78.6822
410.869,78.8383
411.081,78.8068
411.292,79.0417
411.504,79.0747
411.716,79.3961
411.928,79.6759
412.14,79.707
412.352,79.8387
412.564,79.9793
412.776,79.9685
412.988,80.0973
413.199,79.9821
413.411,79.9098
413.623,79.8593
413.835,79.8238
414.047,79.952
414.258,80.1841
414.47,80.3681
414.682,80.1992
414.894,80.3363
415.105,80.1005
415.317,80.0076
415.529,79.8114
415.74,79.6579
415.952,79.8087
416.164,79.7818
416.375,79.7525
416.587,79.847
416.799,80.1266
417.01,80.322
417.222,80.4451
417.433,80.8219
417.645,80.7805
417.857,80.8733
418.068,80.9466
418.28,81.083
418.491,81.1168
418.703,81.3841
418.914,81.6861
419.126,82.0735
419.337,82.3829
419.549,82.2765
419.76,82.1715
419.972,82.101
420.183,82.2288
420.394,82.2329
420.606,82.3867
420.817,82.1766
421.029,82.1893
421.24,82.2433
421.451,82.3859
421.663,82.7348
421.874,82.9767
422.085,82.9394
422.297,82.692
422.508,82.9025
422.719,83.4859
422.931,83.4912
423.142,83.5419
423.353,83.866
423.565,84.1398
423.776,84.2957
423.987,84.8948
424.198,85.1176
424.409,84.9083
424.621,84.989
424.832,85.1212
425.043,85.4222
425.254,85.6985
425.465,85.7564
425.676,86.1034
425.888,86.3447
426.099,86.3325
426.31,86.4099
426.521,86.5552
426.732,86.6648
426.943,86.9342
427.154,87.1533
427.365,87.0695
427.576,87.2307
427.787,87.0233
427.998,87.0867
428.209,87.2688
428.42,87.5729
428.631,87.8527
428.842,87.9095
429.053,87.8771
429.264,88.2981
429.475,88.3452
429.686,88.4895
429.897,88.6547
430.108,88.6217
430.319,89.1976
430.529,89.2862
430.74,89.336
430.951,89.5344
431.162,89.595
431.373,89.6412
431.584,89.9019
431.794,90.2562
432.005,90.309
432.216,90.6442
432.427,90.7015
432.637,91.0163
432.848,91.5973
433.059,91.5437
433.27,91.506
433.48,91.8783
433.691,92.1567
433.902,92.6543
434.112,92.6478
434.323,92.8591
434.534,93.2377
434.744,93.3913
434.955,93.2558
435.166,93.267
435.376,93.1908
435.587,93.6302
435.797,93.858
436.008,93.9039
436.218,94.4938
436.429,94.7976
436.64,95.1603
436.85,95.2192
437.061,95.3935
437.271,95.9184
437.482,96.1495
437.692,96.6862
437.902,96.7679
438.113,96.8599
438.323,97.1419
438.534,97.0422
438.744,97.1015
438.955,97.4604
439.165,97.5957
439.375,97.5708
439.586,97.3846
439.796,97.5996
440.006,97.5346
440.217,97.9118
440.427,98.045
440.637,98.0933
440.848,98.023
441.058,98.2504
441.268,98.6712
441.479,98.7472
441.689,99.0523
441.899,99.3103
442.109,99.371
442.319,99.7209
442.53,99.7853
442.74,99.6667
442.95,100.136
443.16,100.19
443.37,100.658
443.58,100.646
443.791,101.182
444.001,101.395
444.211,101.494
444.421,101.871
444.631,102.351
444.841,102.827
445.051,103.025
445.261,102.935
445.471,104.384
445.681,104.85
445.891,105.237
446.101,105.448
446.311,105.651
446.521,105.688
446.731,105.803
446.941,106.118
447.151,106.734
447.361,106.82
447.571,107.008
447.781,107.426
447.991,107.5
448.201,107.868
448.41,108.62
448.62,108.821
448.83,109.125
449.04,109.218
449.25,109.563
449.46,109.55
449.669,109.744
449.879,109.935
450.089,109.943
450.299,110.516
450.508,110.6
450.718,110.822
450.928,110.838
451.138,111.04
451.347,111.35
451.557,111.631
451.767,112
451.976,112.353
452.186,112.887
452.396,112.924
452.605,113.023
452.815,113.502
453.025,113.532
453.234,113.863
453.444,113.999
453.653,114.172
453.863,114.192
454.072,114.24
454.282,114.532
454.491,114.65
454.701,114.963
454.911,115.222
455.12,115.589
455.329,115.801
455.539,116.339
455.748,116.71
455.958,116.801
456.167,117.254
456.377,117.645
456.586,117.645
456.795,117.65
457.005,118.042
457.214,118.688
457.424,118.951
457.633,119.226
457.842,119.598
458.052,120.023
458.261,120.266
458.47,120.609
458.679,120.857
458.889,121.05
459.098,121.31
459.307,121.475
459.517,121.716
459.726,121.863
459.935,122.258
460.144,122.437
460.353,122.597
460.563,122.963
460.772,123.227
460.981,123.54
461.19,123.874
461.399,123.975
461.608,124.257
461.817,124.917
462.026,125.392
462.236,125.76
462.445,126.098
462.654,126.584
462.863,127.01
463.072,127.423
463.281,127.77
463.49,127.991
463.699,128.542
463.908,128.841
464.117,128.88
464.326,129.404
464.535,130.059
464.744,130.508
464.952,130.375
465.161,130.538
465.37,130.92
465.579,130.988
465.788,131.067
465.997,131.472
466.206,131.692
466.415,132.179
466.623,132.73
466.832,132.902
467.041,133.407
467.25,133.789
467.459,134.071
467.667,134.501
467.876,134.984
468.085,135.366
468.294,135.772
468.502,136.138
468.711,136.835
468.92,137.243
469.128,137.965
469.337,138.253
469.546,138.735
469.754,139.26
469.963,139.806
470.172,140.588
470.38,141.035
470.589,141.238
470.798,141.651
471.006,142.004
471.215,142.651
471.423,143.099
471.632,143.441
471.84,143.882
472.049,144.415
472.257,144.871
472.466,145.207
472.674,145.662
472.883,146.271
473.091,146.436
473.3,146.958
473.508,147.458
473.716,147.954
473.925,148.4
474.133,148.858
474.342,149.36
474.55,149.95
474.758,150.535
474.967,150.68
475.175,151.51
475.383,152.347
475.592,152.758
475.8,153.042
476.008,153.275
476.217,153.922
476.425,154.565
476.633,154.782
476.841,155.089
477.05,155.638
477.258,156.429
477.466,156.902
477.674,157.022
477.882,157.535
478.091,158.128
478.299,158.565
478.507,158.971
478.715,159.775
478.923,160.153
479.131,160.879
479.339,161.202
479.547,161.862
479.755,162.363
479.963,162.954
480.171,163.598
480.38,164.037
480.588,164.92
480.796,165.588
481.004,165.622
481.212,166.051
481.42,166.842
481.627,167.816
481.835,168.521
482.043,169.294
482.251,169.833
482.459,170.397
482.667,170.928
482.875,171.535
483.083,172.602
483.291,173.127
483.499,173.831
483.706,174.304
483.914,174.902
484.122,175.459
484.33,176.044
484.538,176.803
484.745,177.33
484.953,177.627
485.161,178.045
485.369,178.61
485.576,179.694
485.784,179.979
485.992,180.799
486.199,181.493
486.407,182.084
486.615,182.606
486.822,183.007
487.03,183.621
487.238,184.203
487.445,183.318
487.653,183.836
487.861,184.523
488.068,184.868
488.276,185.365
488.483,186.085
488.691,186.697
488.898,187.406
489.106,187.639
489.313,188.327
489.521,189.048
489.728,189.335
489.936,190.013
490.143,190.623
490.351,190.864
490.558,191.555
490.766,192.003
490.973,192.698
491.18,193.04
491.388,193.553
491.595,194.359
491.802,195.208
492.01,195.827
492.217,196.093
492.424,196.954
492.632,197.419
492.839,198.357
493.046,198.9
493.254,199.425
493.461,199.847
493.668,200.483
493.875,201.271
494.083,201.358
494.29,202.116
494.497,202.964
494.704,203.273
494.911,203.879
495.119,204.362
495.326,205.15
495.533,205.867
495.74,206.41
495.947,206.846
496.154,207.325
496.361,207.657
496.568,207.931
496.775,208.309
496.982,208.742
497.19,209.398
497.397,209.836
497.604,210.407
497.811,211.028
498.018,211.626
498.225,212.19
498.432,212.716
498.638,213.267
498.845,214.193
499.052,214.488
499.259,215.069
499.466,215.696
499.673,215.946
499.88,216.695
500.087,217.066
500.294,217.568
500.501,218.082
500.707,218.501
500.914,218.869
501.121,219.492
501.328,219.75
501.535,220.574
501.741,221.335
501.948,221.816
502.155,222.62
502.362,222.84
502.568,223.386
502.775,223.936
502.982,224.387
503.188,224.759
503.395,225.167
503.602,225.279
503.808,225.39
504.015,225.697
504.222,225.862
504.428,226.215
504.635,227.066
504.841,227.145
505.048,227.559
505.254,228.04
505.461,228.548
505.668,228.706
505.874,229.382
506.081,229.974
506.287,229.912
506.494,230.015
506.7,230.61
506.907,231.284
507.113,231.61
507.319,232.204
507.526,232.884
507.732,233.456
507.939,233.814
508.145,233.971
508.351,234.139
508.558,234.446
508.764,234.64
508.97,234.808
509.177,235.096
509.383,235.469
509.589,235.601
509.796,235.706
510.002,236.244
510.208,236.429
510.414,236.437
510.621,236.693
510.827,236.751
511.033,237.208
511.239,237.654
511.445,237.826
511.652,238.076
511.858,238.248
512.064,238.447
512.27,238.819
512.476,238.889
512.682,239.296
512.888,239.562
513.095,239.731
513.301,239.933
513.507,240.054
513.713,240.158
513.919,240.574
514.125,240.61
514.331,241.115
514.537,241.349
514.743,241.667
514.949,241.982
515.155,242.33
515.361,242.468
515.567,242.706
515.773,242.892
515.978,243.061
516.184,243.206
516.39,243.095
516.596,243.314
516.802,243.354
517.008,243.335
517.214,243.455
517.419,243.782
517.625,244.124
517.831,244.274
518.037,244.242
518.243,244.657
518.448,245.092
518.654,245.369
518.86,245.462
519.066,245.972
519.271,246.264
519.477,246.457
519.683,246.646
519.888,246.85
520.094,247.01
520.3,246.856
520.505,247.291
520.711,247.496
520.917,247.975
521.122,248.33
521.328,248.388
521.533,248.524
521.739,248.965
521.944,249.166
522.15,249.165
522.356,249.338
522.561,249.763
522.767,249.823
522.972,249.772
523.177,249.861
523.383,250.28
523.588,250.495
523.794,250.405
523.999,250.351
524.205,250.721
524.41,250.911
524.615,250.63
524.821,250.71
525.026,250.714
525.232,250.778
525.437,250.999
525.642,251.203
525.847,251.425
526.053,251.44
526.258,251.569
526.463,251.732
526.669,251.961
526.874,251.802
527.079,251.41
527.284,251.635
527.49,251.556
527.695,251.258
527.9,251.155
528.105,250.971
528.31,250.92
528.515,250.832
528.721,250.969
528.926,250.809
529.131,250.609
529.336,250.656
529.541,250.944
529.746,251.037
529.951,251.016
530.156,251.056
530.361,250.793
530.566,250.849
530.771,250.836
530.976,250.693
531.181,250.767
531.386,250.638
531.591,250.44
531.796,250.524
532.001,250.506
532.206,250.309
532.411,250.238
532.616,250.246
532.821,250.103
533.025,249.766
533.23,249.329
533.435,249.178
533.64,249.014
533.845,248.682
534.05,248.646
534.254,248.365
534.459,248.203
534.664,247.836
534.869,247.961
535.073,247.802
535.278,247.41
535.483,247.338
535.688,247.085
535.892,246.879
536.097,246.818
536.302,246.388
536.506,246.37
536.711,246.263
536.916,245.948
537.12,245.85
537.325,246.055
537.529,245.873
537.734,245.869
537.938,246.593
538.143,246.81
538.348,246.684
538.552,246.238
538.757,246.252
538.961,246.363
539.166,246.238
539.37,246.234
539.575,245.92
539.779,245.621
539.983,245.671
540.188,245.252
540.392,245.015
540.597,244.934
540.801,244.73
541.005,244.622
541.21,244.027
541.414,243.96
541.618,243.825
541.823,243.705
542.027,243.547
542.231,243.545
542.436,243.094
542.64,243.098
542.844,242.441
543.048,241.972
543.253,241.792
543.457,241.281
543.661,241.038
543.865,240.821
544.069,240.375
544.274,240.076
544.478,239.856
544.682,239.891
544.886,239.709
545.09,239.865
545.294,239.638
545.498,239.761
545.702,239.442
545.907,238.789
546.111,238.621
546.315,238.491
546.519,238.294
546.723,237.784
546.927,237.795
547.131,237.596
547.335,237.098
547.539,237.289
547.743,237.229
547.947,237.262
548.15,236.85
548.354,236.624
548.558,236.396
548.762,236.044
548.966,235.496
549.17,235.214
549.374,234.975
549.578,234.671
549.781,234.476
549.985,234.22
550.189,234.269
550.393,234.346
550.597,234.057
550.8,233.728
551.004,233.586
551.208,233.5
551.412,233.418
551.615,233.26
551.819,233.207
552.023,233.059
552.226,232.72
552.43,232.28
552.634,231.864
552.837,231.692
553.041,231.23
553.244,230.964
553.448,230.911
553.652,230.73
553.855,230.49
554.059,230.537
554.262,230.371
554.466,230.296
554.669,230.196
554.873,230.121
555.076,229.963
555.28,229.639
555.483,229.335
555.687,228.943
555.89,228.527
556.094,227.999
556.297,227.646
556.5,227.323
556.704,226.926
556.907,226.791
557.111,226.604
557.314,226.27
557.517,226.217
557.721,226.004
557.924,225.824
558.127,225.45
558.33,225.207
558.534,225.11
558.737,224.75
558.94,224.229
559.144,224.124
559.347,223.917
559.55,223.509
559.753,223.238
559.956,222.794
560.159,222.59
560.363,222.731
560.566,222.566
560.769,222.367
560.972,222.086
561.175,221.916
561.378,221.929
561.581,221.442
561.784,221.342
561.987,221.027
562.19,220.451
562.394,220.23
562.597,220.506
562.8,220.148
563.003,219.874
563.205,219.604
563.408,219.627
563.611,219.578
563.814,219.693
564.017,219.758
564.22,219.419
564.423,219.021
564.626,218.865
564.829,218.768
565.032,218.911
565.235,218.507
565.437,218.473
565.64,218.241
565.843,218.421
566.046,218.382
566.249,218.375
566.451,217.93
566.654,218.024
566.857,218.056
567.06,217.955
567.262,218.102
567.465,218.44
567.668,218.481
567.87,218.312
568.073,218.407
568.276,218.185
568.478,218.278
568.681,218.56
568.884,218.488
569.086,218.832
569.289,218.842
569.491,219.264
569.694,219.28
569.896,219.508
570.099,219.941
570.301,219.846
570.504,219.854
570.706,219.806
570.909,219.844
571.111,220.043
571.314,220.561
571.516,220.725
571.719,220.92
571.921,221.086
572.124,221.365
572.326,221.525
572.528,221.801
572.731,222.09
572.933,222.383
573.135,222.925
573.338,223.12
573.54,223.183
573.742,223.325
573.945,223.892
574.147,224.304
574.349,224.563
574.551,224.769
574.754,225.184
574.956,225.639
575.158,225.621
575.36,226.24
575.562,226.819
575.765,226.857
575.967,227.119
576.169,227.935
576.371,228.23
576.573,228.754
576.775,228.824
576.977,229.054
577.179,229.502
577.382,229.651
577.584,229.943
577.786,230.312
577.988,230.928
578.19,231.045
578.392,231.653
578.594,232.16
578.796,232.06
578.998,232.235
579.2,232.471
579.401,233.046
579.603,233.527
579.805,233.754
580.007,233.97
580.209,233.836
580.411,234.712
580.613,235.435
580.815,235.838
581.016,236.185
581.218,236.748
581.42,237.173
581.622,237.687
581.824,238.469
582.025,239.479
582.227,240.098
582.429,240.358
582.631,240.719
582.832,241.156
583.034,241.638
583.236,242.15
583.437,242.62
583.639,243.309
583.841,243.76
584.042,244.517
584.244,245.012
584.446,245.759
584.647,246.371
584.849,246.861
585.05,247.277
585.252,247.77
585.453,248.074
585.655,248.739
585.856,249.056
586.058,249.513
586.259,249.992
586.461,250.465
586.662,251.132
586.864,251.846
587.065,252.589
587.267,253.016
587.468,253.762
587.67,254.559
587.871,255.025
588.072,255.502
588.274,256.078
588.475,256.867
588.676,257.135
588.878,257.711
589.079,258.488
589.28,259.081
589.481,259.624
589.683,260.094
589.884,260.766
590.085,261.556
590.286,262.277
590.488,262.853
590.689,263.431
590.89,263.799
591.091,264.062
591.292,264.782
591.494,265.342
591.695,265.953
591.896,266.545
592.097,267.143
592.298,267.633
592.499,268.223
592.7,268.881
592.901,269.577
593.102,270.576
593.303,271.482
593.504,272.137
593.705,273.02
593.906,273.74
594.107,274.534
594.308,274.987
594.509,275.515
594.71,275.841
594.911,276.498
595.112,276.979
595.313,277.543
595.514,278.193
595.715,278.724
595.915,279.43
596.116,279.911
596.317,280.882
596.518,281.737
596.719,282.444
596.92,283.265
597.12,284.002
597.321,284.691
597.522,285.492
597.723,286.123
597.923,286.847
598.124,287.205
598.325,288.116
598.525,288.386
598.726,289.103
598.927,289.808
599.127,290.376
599.328,291.192
599.529,292.001
599.729,292.42
599.93,293.159
600.13,293.67
600.331,294.142
600.531,294.855
600.732,295.335
600.933,295.591
601.133,296.117
601.334,296.763
601.534,297.176
601.734,297.495
601.935,297.972
602.135,298.46
602.336,298.789
602.536,299.197
602.737,299.819
602.937,300.296
603.137,300.236
603.338,300.474
603.538,300.86
603.738,301.566
603.939,302.121
604.139,302.511
604.339,302.897
604.54,303.267
604.74,304.008
604.94,304.49
605.14,304.838
605.341,305.195
605.541,305.653
605.741,305.953
605.941,306.026
606.141,306.633
606.342,306.924
606.542,307.494
606.742,307.748
606.942,308.289
607.142,308.704
607.342,309.14
607.542,309.357
607.742,309.482
607.942,309.428
608.142,309.678
608.343,310.214
608.543,310.626
608.743,311.129
608.943,311.418
609.143,311.767
609.342,312.277
609.542,312.49
609.742,312.918
609.942,313.035
610.142,313.184
610.342,313.513
610.542,313.589
610.742,314.162
610.942,314.427
611.142,314.832
611.341,315.132
611.541,315.175
611.741,314.967
611.941,315.144
612.141,315.3
612.34,315.597
612.54,315.79
612.74,316.261
612.94,316.325
613.139,316.6
613.339,316.51
613.539,316.63
613.738,316.713
613.938,317.075
614.138,317.383
614.337,317.356
614.537,317.613
614.736,317.642
614.936,318.111
615.136,318.111
615.335,318.024
615.535,318.312
615.734,318.551
615.934,318.783
616.133,318.915
616.333,319.325
616.532,319.415
616.732,319.838
616.931,319.96
617.131,320.628
617.33,321.119
617.529,321.405
617.729,321.617
617.928,321.895
618.128,321.968
618.327,321.853
618.526,321.883
618.726,322.061
618.925,322.271
619.124,322.406
619.324,322.663
619.523,322.994
619.722,323.243
619.921,323.455
620.121,323.489
620.32,324.077
620.519,324.38
620.718,324.195
620.917,324.158
621.117,324.195
621.316,324.434
621.515,324.437
621.714,324.734
621.913,324.727
622.112,324.924
622.311,324.682
622.51,324.956
622.709,325.249
622.909,325.628
623.108,326.123
623.307,325.913
623.506,326.211
623.705,326.483
623.904,326.372
624.103,326.456
624.301,326.431
624.5,326.748
624.699,327.098
624.898,327.097
625.097,327.31
625.296,327.575
625.495,327.769
625.694,327.818
625.893,328.094
626.091,328.326
626.29,328.934
626.489,328.84
626.688,329.066
626.887,329.092
627.085,329.149
627.284,328.851
627.483,329.044
627.682,329.001
627.88,328.535
628.079,328.773
628.278,329.263
628.476,329.219
628.675,329.129
628.874,329.29
629.072,329.231
629.271,329.407
629.47,329.644
629.668,329.805
629.867,329.988
630.065,329.966
630.264,330.14
630.462,330.266
630.661,330.473
630.859,330.813
631.058,331.373
631.256,331.788
631.455,332.442
631.653,332.883
631.852,333.06
632.05,332.929
632.249,333.024
632.447,333.407
632.645,333.712
632.844,333.895
633.042,334.092
633.24,334.162
633.439,334.356
633.637,334.529
633.835,334.593
634.034,334.796
634.232,334.799
634.43,335.297
634.628,335.702
634.827,336.098
635.025,336.401
635.223,336.842
635.421,336.87
635.62,336.908
635.818,337.127
636.016,337.265
636.214,337.55
636.412,337.453
636.61,337.476
636.808,337.773
637.006,337.797
637.205,337.989
637.403,338.564
637.601,338.367
637.799,338.525
637.997,338.846
638.195,339.124
638.393,338.92
638.591,339.318
638.789,339.557
638.987,339.948
639.184,340.103
639.382,340.205
639.58,340.279
639.778,340.409
639.976,340.423
640.174,340.783
640.372,341.536
640.57,341.647
640.767,341.934
640.965,342.017
641.163,342.222
641.361,342.589
641.559,343.136
641.756,343.697
641.954,343.712
642.152,344.325
642.35,344.732
642.547,344.747
642.745,345.105
642.943,345.674
643.14,346.127
643.338,346.622
643.536,347.212
643.733,347.276
643.931,347.407
644.128,347.635
644.326,347.882
644.524,348.131
644.721,348.077
644.919,348.527
645.116,348.949
645.314,349.327
645.511,349.407
645.709,349.732
645.906,350.375
646.104,350.834
646.301,351.452
646.498,351.43
646.696,351.746
646.893,351.943
647.091,352.005
647.288,352.092
647.485,352.561
647.683,353.022
647.88,353.429
648.077,353.943
648.275,354.28
648.472,354.561
648.669,354.846
648.867,355.182
649.064,355.523
649.261,356.179
649.458,356.503
649.655,356.856
649.853,357.111
650.05,357.507
650.247,358.195
650.444,358.835
650.641,359.003
650.838,359.644
651.036,360.154
651.233,360.399
651.43,360.713
651.627,361.42
651.824,361.687
652.021,362.128
652.218,362.553
652.415,362.912
652.612,362.966
652.809,363.519
653.006,363.662
653.203,364.156
653.4,364.59
653.597,365.149
653.794,365.735
653.991,366.291
654.187,366.743
654.384,366.878
654.581,367.34
654.778,367.57
654.975,367.964
655.172,368.454
655.369,368.745
655.565,368.755
655.762,368.943
655.959,369.4
656.156,369.532
656.352,369.404
656.549,369.869
656.746,370
656.943,369.993
657.139,370.33
657.336,370.834
657.533,371.245
657.729,371.447
657.926,371.865
658.122,372.617
658.319,373.24
658.516,373.515
658.712,373.994
658.909,374.31
659.105,374.558
659.302,374.908
659.498,375.303
659.695,375.377
659.891,375.543
660.088,375.706
660.284,376.291
660.481,376.716
660.677,377.225
660.874,377.563
661.07,377.908
661.266,378.335
661.463,378.404
661.659,378.58
661.856,378.7
662.052,379.027
662.248,378.912
662.444,379.168
662.641,379.301
662.837,379.596
663.033,380.231
663.23,380.347
663.426,380.314
663.622,380.818
663.818,381.038
664.014,381.302
664.211,381.494
664.407,381.647
664.603,382.011
664.799,382.318
664.995,382.599
665.191,382.803
665.387,383.08
665.584,383.196
665.78,383.423
665.976,383.346
666.172,383.55
666.368,383.828
666.564,384.064
666.76,384.553
666.956,385.052
667.152,385.244
667.348,385.766
667.544,386.2
667.74,386.301
667.936,386.178
668.131,386.25
668.327,386.319
668.523,386.836
668.719,387.226
668.915,387.073
669.111,387.178
669.307,387.433
669.502,387.787
669.698,388.137
669.894,388.273
670.09,388.495
670.285,388.498
670.481,388.689
670.677,388.624
670.873,388.397
671.068,387.857
671.264,387.977
671.46,388.059
671.655,387.982
671.851,388.177
672.047,388.195
672.242,387.941
672.438,387.802
672.633,387.978
672.829,387.714
673.025,387.557
673.22,387.467
673.416,387.304
673.611,387.524
673.807,387.597
674.002,387.38
674.198,387.415
674.393,387.475
674.589,387.28
674.784,387.193
674.979,387.394
675.175,387.344
675.37,387.185
675.566,387.32
675.761,387.218
675.956,387.119
676.152,387.153
676.347,387.121
676.542,387.311
676.738,387.334
676.933,386.897
677.128,387.01
677.323,387.171
677.519,387.006
677.714,387.218
677.909,387.344
678.104,387.495
678.299,387.581
678.494,387.364
678.69,387.234
678.885,387.208
679.08,387.318
679.275,387.529
679.47,387.252
679.665,387.141
679.86,386.504
680.055,386.416
680.25,386.205
680.445,386.253
680.64,386.227
680.835,385.9
681.03,385.685
681.225,385.602
681.42,385.808
681.615,385.372
681.81,384.975
682.005,385.204
682.2,385.026
682.395,384.709
682.59,384.707
682.785,384.619
682.979,384.226
683.174,384.229
683.369,383.765
683.564,383.538
683.759,383.053
683.953,383.007
684.148,382.942
684.343,382.477
684.538,382.437
684.732,381.876
684.927,381.815
685.122,381.872
685.316,381.726
685.511,381.155
685.706,380.715
685.9,380.968
686.095,380.84
686.29,380.416
686.484,380.281
686.679,379.889
686.873,379.778
687.068,379.356
687.262,379.09
687.457,378.59
687.651,378.27
687.846,377.864
688.04,377.914
688.235,377.518
688.429,377.122
688.624,376.421
688.818,376.077
689.013,375.651
689.207,375.35
689.401,375.024
689.596,374.417
689.79,374.057
689.984,373.85
690.179,373.321
690.373,372.98
690.567,372.57
690.762,372.412
690.956,372.078
691.15,371.78
691.344,371.227
691.538,370.819
691.733,370.463
691.927,370.256
692.121,369.655
692.315,369.409
692.509,369.095
692.703,368.665
692.898,368.123
693.092,367.884
693.286,367.353
693.48,366.872
693.674,366.655
693.868,366.251
694.062,366.062
694.256,365.554
694.45,365.121
694.644,365.112
694.838,364.811
695.032,364.626
695.226,364.191
695.42,363.803
695.614,363.889
695.808,363.499
696.002,363.327
696.195,363.097
696.389,362.506
696.583,362.078
696.777,361.955
696.971,361.502
697.165,361.288
697.358,360.51
697.552,359.902
697.746,359.469
697.94,359.104
698.133,359.059
698.327,358.649
698.521,358.414
698.715,357.707
698.908,357.303
699.102,357.254
699.296,356.987
699.489,356.455
699.683,355.885
699.876,355.564
700.07,355.281
700.264,354.894
700.457,354.534
700.651,354.321
700.844,354.308
701.038,354.033
701.231,353.782
701.425,353.597
701.618,353.414
701.812,353.085
702.005,352.61
702.199,352.266
702.392,352.142
702.586,352.27
702.779,351.881
702.972,351.777
703.166,351.689
703.359,351.601
703.552,351.021
703.746,350.691
703.939,350.562
704.132,350.209
704.326,350.022
704.519,349.819
704.712,349.652
704.905,349.467
705.099,349.242
705.292,349.051
705.485,349.058
705.678,348.691
705.871,348.226
706.064,347.899
706.258,347.618
706.451,347.202
706.644,347.034
706.837,347.093
707.03,347.089
707.223,347.036
707.416,346.885
707.609,346.293
707.802,346.283
707.995,346.213
708.188,346.128
708.381,345.814
708.574,345.745
708.767,345.236
708.96,344.81
709.153,344.715
709.346,344.869
709.539,344.427
709.732,344.215
709.924,344.265
710.117,344.377
710.31,343.86
710.503,343.807
710.696,344.019
710.889,343.966
711.081,343.965
711.274,344.078
711.467,344.226
711.66,344.041
711.852,344.079
712.045,344.192
712.238,344.095
712.43,344.256
712.623,343.862
712.816,343.604
713.008,343.816
713.201,343.807
713.394,343.665
713.586,343.629
713.779,343.622
713.971,343.75
714.164,343.77
714.356,343.673
714.549,343.741
714.741,343.86
714.934,344.05
715.126,344.212
715.319,344.193
715.511,344.043
715.704,343.904
715.896,344.192
716.088,344.207
716.281,344.133
716.473,344.378
716.666,344.288
716.858,344.281
717.05,344.175
717.243,344.291
717.435,344.506
717.627,344.613
717.819,344.829
718.012,344.988
718.204,345.243
718.396,345.852
718.588,346.138
718.781,346.414
718.973,346.862
719.165,346.979
719.357,347.092
719.549,347.077
719.741,347.233
719.934,347.229
720.126,347.388
720.318,347.592
720.51,347.757
720.702,348.071
720.894,348.343
721.086,348.98
721.278,349.193
721.47,349.499
721.662,349.746
721.854,350.63
722.046,350.913
722.238,351.443
722.43,351.874
722.622,352.546
722.814,352.583
723.005,353.008
723.197,353.486
723.389,353.639
723.581,354.457
723.773,354.821
723.965,355.39
724.156,355.782
724.348,356.338
724.54,356.715
724.732,356.955
724.923,357.335
725.115,358.14
725.307,358.793
725.499,359.62
725.69,359.946
725.882,360.812
726.074,361.39
726.265,362.338
726.457,362.857
726.648,363.714
726.84,364.177
727.032,365.065
727.223,365.716
727.415,366.526
727.606,367.626
727.798,368.454
727.989,369.092
728.181,369.827
728.372,370.879
728.564,371.611
728.755,372.557
728.947,373.243
729.138,373.994
729.329,375.038
729.521,375.961
729.712,376.79
729.904,377.757
730.095,378.934
730.286,380.114
730.478,381.02
730.669,382.156
730.86,383.656
731.051,384.703
731.243,385.646
731.434,386.977
731.625,388.59
731.816,389.529
732.008,390.91
732.199,392.469
732.39,393.888
732.581,395.065
732.772,396.037
732.963,397.624
733.154,398.943
733.346,400.145
733.537,401.427
733.728,402.489
733.919,403.975
734.11,405.679
734.301,406.79
734.492,408.205
734.683,409.526
734.874,411.04
735.065,412.568
735.256,414.102
735.447,415.628
735.638,417.544
735.829,419.04
736.019,420.726
736.21,422.713
736.401,424.42
736.592,426.298
736.783,428.195
736.974,430.426
737.164,431.963
737.355,434.361
737.546,436.298
737.737,438.217
737.928,439.797
738.118,441.906
738.309,444.365
738.5,446.477
738.69,448.466
738.881,450.696
739.072,452.811
739.262,455
739.453,457.206
739.644,459.307
739.834,461.47
740.025,464.028
740.215,466.494
740.406,469.086
740.596,471.453
740.787,473.8
740.978,476.331
741.168,478.873
741.358,481.477
741.549,484.121
741.739,486.438
741.93,488.963
742.12,491.675
742.311,494.398
742.501,496.943
742.691,499.604
742.882,502.657
743.072,505.259
743.263,507.978
743.453,510.663
743.643,513.62
743.833,516.67
744.024,519.209
744.214,522.312
744.404,525.188
744.594,528.242
744.785,531.261
744.975,534.388
745.165,537.47
745.355,540.118
745.545,543.075
745.736,546.078
745.926,549.062
746.116,552.386
746.306,555.399
746.496,558.482
746.686,561.546
746.876,564.691
747.066,567.648
747.256,571.369
747.446,574.797
747.636,578.03
747.826,581.198
748.016,584.554
748.206,588.051
748.396,591.348
748.586,594.674
748.776,598.356
748.966,601.705
749.156,605.077
749.346,608.514
749.535,612.002
749.725,615.498
749.915,618.945
750.105,622.482
750.295,626.22
750.484,629.713
750.674,633.546
750.864,637.043
751.054,641.022
751.243,644.546
751.433,648.218
751.623,651.741
751.812,655.335
752.002,659.124
752.192,662.83
752.381,666.247
752.571,669.882
752.761,673.893
752.95,677.478
753.14,680.955
753.329,684.735
753.519,688.3
753.708,692.458
753.898,696.208
754.087,699.875
754.277,703.425
754.466,707.471
754.656,711.144
754.845,714.988
755.035,718.817
755.224,722.883
755.413,727.031
755.603,730.723
755.792,734.441
755.982,738.419
756.171,742.085
756.36,746.008
756.549,749.585
756.739,753.409
756.928,757.505
757.117,761.475
757.307,765.375
757.496,769.344
757.685,773.22
757.874,777.477
758.063,781.448
758.253,785.278
758.442,788.981
758.631,792.704
758.82,796.877
759.009,800.871
759.198,804.683
759.387,808.342
759.576,812.409
759.765,816.34
759.954,820.249
760.143,823.589
760.332,827.138
760.521,831.18
760.71,834.833
760.899,838.555
761.088,842.546
761.277,846.497
761.466,850.077
761.655,853.995
761.844,857.812
762.033,862.112
762.222,865.572
762.411,869.224
762.599,873.158
762.788,876.927
762.977,880.589
763.166,884.503
763.355,888.356
763.543,892.233
763.732,896.367
763.921,900.256
764.109,903.889
764.298,907.413
764.487,910.992
764.675,914.855
764.864,918.347
765.053,921.941
765.241,925.344
765.43,928.673
765.619,932.081
765.807,935.553
765.996,938.587
766.184,942.266
766.373,945.953
766.561,949.197
766.75,952.581
766.938,955.811
767.127,959.541
767.315,963.126
767.504,966.438
767.692,969.758
767.881,973.137
768.069,976.694
768.257,979.672
768.446,982.799
768.634,986.231
768.822,989.164
769.011,992.294
769.199,995.506
769.387,998.79
769.576,1001.61
769.764,1004.17
769.952,1007.07
770.14,1010.05
770.328,1012.77
770.517,1015.72
770.705,1018.75
770.893,1021.68
771.081,1024.56
771.269,1027.19
771.457,1030.07
771.646,1033
771.834,1036.21
772.022,1038.79
772.21,1041.13
772.398,1043.86
772.586,1046.49
772.774,1049.34
772.962,1051.71
773.15,1054.39
773.338,1056.76
773.526,1058.99
773.714,1061.42
773.902,1064.16
774.09,1066.97
774.278,1069.15
774.465,1071.56
774.653,1073.75
774.841,1075.73
775.029,1077.52
775.217,1079.79
775.405,1081.55
775.592,1083.6
775.78,1085.72
775.968,1088.07
776.156,1089.81
776.343,1091.36
776.531,1093.11
776.719,1095.03
776.907,1096.79
777.094,1098.47
777.282,1100.06
777.47,1101.76
777.657,1103.59
777.845,1105.32
778.032,1106.92
778.22,1108.28
778.408,1109.62
778.595,1110.98
778.783,1112.53
778.97,1113.82
779.158,1114.85
779.345,1116
779.533,1117.4
779.72,1118.69
779.908,1119.7
780.095,1120.78
780.282,1121.86
780.47,1122.85
780.657,1123.82
780.845,1124.35
781.032,1125.36
781.219,1126.41
781.407,1127.34
781.594,1127.91
781.781,1128.43
781.969,1129.14
782.156,1129.68
782.343,1130.39
782.53,1131.12
782.718,1131.94
782.905,1132.72
783.092,1133.27
783.279,1134.04
783.466,1134.59
783.653,1135.29
783.841,1136.23
784.028,1136.38
784.215,1136.87
784.402,1137.42
784.589,1137.79
784.776,1138.12
784.963,1138.51
785.15,1138.57
785.337,1138.89
785.524,1138.96
785.711,1139.13
785.898,1139.72
786.085,1139.68
786.272,1139.77
786.459,1139.94
786.646,1140.15
786.833,1140.23
787.02,1140.33
787.206,1140.42
787.393,1140.41
787.58,1140.32
787.767,1140.29
787.954,1140.07
788.14,1139.88
788.327,1139.9
788.514,1139.53
788.701,1139.34
788.887,1138.71
789.074,1138.87
789.261,1138.49
789.448,1138.17
789.634,1138.23
789.821,1137.86
790.008,1137.47
790.194,1137.43
790.381,1137.6
790.567,1137.23
790.754,1137.09
790.94,1137.26
791.127,1136.8
791.314,1136.8
791.5,1135.99
791.687,1135.72
791.873,1135.74
792.059,1135.75
792.246,1135.25
792.432,1135.02
792.619,1134.6
792.805,1134.37
792.992,1133.59
793.178,1132.76
793.364,1132.58
793.551,1132.32
793.737,1131.82
793.923,1131.59
794.11,1131.46
794.296,1131.52
794.482,1130.88
794.668,1130.13
794.855,1129.64
795.041,1129.17
795.227,1128.79
795.413,1128.53
795.599,1128.02
795.786,1127.59
795.972,1127.07
796.158,1126.64
796.344,1126.29
796.53,1126.12
796.716,1125.16
796.902,1124.75
797.088,1124.18
797.274,1123.41
797.46,1122.88
797.646,1122.23
797.832,1122.07
798.018,1121.79
798.204,1121.19
798.39,1120.71
798.576,1120.07
798.762,1119.73
798.948,1118.97
799.134,1118.92
799.32,1118.16
799.506,1117.8
799.692,1117.13
799.877,1116.83
800.063,1116.52
800.249,1116.1
800.435,1115.62
800.621,1115.22
800.806,1114.69
800.992,1113.86
801.178,1112.87
801.363,1111.68
801.549,1111.05
801.735,1110.49
801.92,1110.13
802.106,1109.57
802.292,1108.89
802.477,1108.23
802.663,1107.65
802.849,1107.05
803.034,1107.05
803.22,1106.68
803.405,1105.83
803.591,1105.9
803.776,1105.3
803.962,1104.86
804.147,1104.49
804.333,1103.87
804.518,1103.45
804.703,1102.77
804.889,1102.04
805.074,1101.74
805.26,1101.23
805.445,1100.67
805.63,1099.88
805.816,1100.08
806.001,1099.55
806.186,1099.01
806.372,1098.7
806.557,1098.1
806.742,1097.56
806.927,1097.27
807.113,1097.15
807.298,1096.76
807.483,1096.35
807.668,1095.9
807.853,1095.52
808.039,1094.97
808.224,1094.45
808.409,1094.16
808.594,1093.45
808.779,1093.17
808.964,1092.43
809.149,1091.77
809.334,1090.98
809.519,1090.71
809.704,1090.2
809.889,1089.75
810.074,1089.32
810.259,1088.96
810.444,1088.59
810.629,1087.99
810.814,1087.52
810.999,1087.24
811.184,1086.52
811.369,1085.82
811.554,1085.06
811.738,1084.74
811.923,1084.11
812.108,1083.39
812.293,1082.62
812.478,1082.41
812.662,1081.94
812.847,1081.42
813.032,1081.02
813.217,1080.31
813.401,1079.59
813.586,1079.33
813.771,1078.93
813.955,1078.22
814.14,1077.75
814.325,1077.15
814.509,1076.61
814.694,1076.19
814.878,1075.79
815.063,1075.16
815.248,1074.42
815.432,1073.59
815.617,1073.25
815.801,1072.86
815.986,1072.48
816.17,1071.81
816.355,1071.37
816.539,1070.87
816.723,1070.45
816.908,1069.65
817.092,1069.18
817.277,1068.65
817.461,1068.42
817.645,1067.85
817.83,1067.29
818.014,1066.84
818.198,1066.47
818.383,1066.05
818.567,1065.37
818.751,1064.63
818.935,1064.06
819.12,1063.83
819.304,1063.47
819.488,1063.11
819.672,1062.49
819.856,1061.71
820.041,1061.06
820.225,1060.13
820.409,1059.52
820.593,1059.02
820.777,1058.65
820.961,1058.11
821.145,1057.21
821.329,1056.93
821.513,1056.35
821.697,1055.65
821.881,1054.96
822.065,1054.49
822.249,1053.96
822.433,1053.32
822.617,1052.87
822.801,1052.38
822.985,1052.05
823.169,1051.26
823.353,1050.71
823.536,1050.45
823.72,1049.94
823.904,1049.12
824.088,1048.69
824.272,1047.88
824.456,1047.2
824.639,1046.69
824.823,1046
825.007,1045.09
825.19,1044.62
825.374,1044.02
825.558,1043.41
825.742,1042.8
825.925,1042.22
826.109,1041.87
826.292,1040.85
826.476,1040.19
826.66,1039.55
826.843,1038.67
827.027,1038.04
827.21,1037.52
827.394,1036.71
827.577,1035.58
827.761,1034.85
827.944,1033.92
828.128,1032.93
828.311,1032.06
828.495,1030.89
828.678,1029.97
828.862,1028.98
829.045,1028.01
829.228,1026.88
829.412,1025.9
829.595,1024.98
829.778,1024.27
829.962,1023.33
830.145,1022.57
830.328,1021.92
830.512,1020.74
830.695,1019.48
830.878,1018.53
831.061,1017.31
831.244,1016
831.428,1014.48
831.611,1013.45
831.794,1012.49
831.977,1011.39
832.16,1010.25
832.343,1009.07
832.526,1008.1
832.709,1006.84
832.893,1005.65
833.076,1004.63
833.259,1003.61
833.442,1002.47
833.625,1000.83
833.808,1000.02
833.991,998.726
834.174,997.63
834.356,996.725
834.539,995.314
834.722,994.45
834.905,992.957
835.088,991.81
835.271,990.564
835.454,989.698
835.637,988.577
835.819,987.388
836.002,986.286
836.185,984.948
836.368,984.14
836.551,982.731
836.733,981.156
836.916,979.75
837.099,978.105
837.281,976.702
837.464,975.696
837.647,974.414
837.829,973.1
838.012,971.822
838.195,970.64
838.377,969.441
838.56,968.125
838.742,966.58
838.925,965.358
839.107,963.757
839.29,962.39
839.472,960.984
839.655,959.683
839.837,958.295
840.02,956.644
840.202,955.267
840.385,954.194
840.567,952.598
840.749,951.479
840.932,950.204
841.114,948.704
841.297,947.315
841.479,945.984
841.661,944.616
841.843,943.249
842.026,941.722
842.208,940.436
842.39,939.081
842.572,937.827
842.755,935.939
842.937,934.595
843.119,933.061
843.301,931.439
843.483,930.059
843.666,928.792
843.848,927.324
844.03,925.473
844.212,924.238
844.394,922.897
844.576,921.205
844.758,919.539
844.94,918.132
845.122,916.872
845.304,915.654
845.486,914.486
845.668,913.198
845.85,911.799
846.032,910.494
846.214,909.337
846.396,907.733
846.578,906.178
846.759,904.725
846.941,903.075
847.123,901.396
847.305,899.978
847.487,898.713
847.669,897.266
847.85,895.732
848.032,894.344
848.214,892.819
848.396,891.198
848.577,889.461
848.759,888.193
848.941,886.795
849.122,885.546
849.304,883.904
849.486,882.569
849.667,881.308
849.849,879.85
850.03,878.686
850.212,877.467
850.394,875.806
850.575,874.163
850.757,872.945
850.938,871.541
851.12,870.16
851.301,869.043
851.483,867.691
851.664,866.116
851.845,864.656
852.027,863.416
852.208,862.267
852.39,860.665
852.571,859.268
852.752,857.863
852.934,856.948
853.115,855.618
853.296,854.423
853.478,853.466
853.659,852.195
853.84,850.837
854.021,849.586
854.203,848.108
854.384,847.044
854.565,845.913
854.746,844.674
854.927,843.47
855.108,842.277
855.29,841.33
855.471,840.149
855.652,839.217
855.833,837.993
856.014,836.816
856.195,835.466
856.376,834.492
856.557,833.681
856.738,832.699
856.919,831.732
857.1,830.603
857.281,829.287
857.462,828.219
857.643,826.768
857.824,825.668
858.005,824.51
858.185,823.538
858.366,822.689
858.547,821.73
858.728,820.733
858.909,819.76
859.09,818.786
859.27,817.766
859.451,816.941
859.632,815.705
859.813,814.631
859.993,813.619
860.174,812.921
860.355,811.76
860.535,810.711
860.716,809.434
860.897,808.592
861.077,807.568
861.258,806.475
861.438,805.636
861.619,805.05
861.8,804.105
861.98,803.052
862.161,801.953
862.341,801.339
862.522,800.571
862.702,799.459
862.883,798.938
863.063,798.116
863.243,797.386
863.424,796.606
863.604,795.655
863.785,794.49
863.965,793.754
864.145,793.089
864.326,792.317
864.506,791.567
864.686,790.858
864.867,790.259
865.047,789.473
865.227,788.972
865.407,788.478
865.588,787.695
865.768,786.846
865.948,785.862
866.128,785.054
866.308,784.024
866.488,783.538
866.669,783.013
866.849,782.237
867.029,781.795
867.209,781.098
867.389,780.404
867.569,779.901
867.749,778.985
867.929,778.524
868.109,777.815
868.289,777.336
868.469,776.535
868.649,775.931
868.829,775.205
869.009,774.432
869.189,773.698
869.369,773.035
869.548,772.227
869.728,771.65
869.908,770.96
870.088,770.266
870.268,769.787
870.448,769.223
870.627,768.569
870.807,768.045
870.987,767.647
871.167,766.93
871.346,766.404
871.526,765.508
871.706,764.881
871.885,764.191
872.065,763.564
872.245,762.739
872.424,762.05
872.604,761.704
872.783,760.839
872.963,760.213
873.142,759.656
873.322,759.413
873.501,758.939
873.681,758.205
873.86,757.284
874.04,756.721
874.219,756.238
874.399,755.936
874.578,755.359
874.758,754.902
874.937,754.301
875.116,754.019
875.296,753.166
875.475,752.904
875.654,752.282
875.834,751.946
876.013,751.153
876.192,750.83
876.372,750.41
876.551,749.837
876.73,749.247
876.909,748.94
877.088,748.259
877.268,747.78
877.447,747.084
877.626,746.72
877.805,745.95
877.984,745.547
878.163,745.135
878.342,744.51
878.521,743.913
878.7,743.163
878.879,742.678
879.059,742.338
879.238,741.785
879.417,741.077
879.595,740.675
879.774,740.134
879.953,739.37
880.132,738.676
880.311,738.097
880.49,737.522
880.669,736.789
880.848,736.209
881.027,735.755
881.205,735.105
881.384,734.197
881.563,733.371
881.742,732.555
881.921,731.837
882.099,731.613
882.278,731.013
882.457,730.297
882.635,729.82
882.814,729.409
882.993,728.953
883.171,728.368
883.35,727.638
883.529,727.175
883.707,726.634
883.886,726.522
884.064,726.057
884.243,725.499
884.422,724.894
884.6,724.523
884.779,724.28
884.957,723.428
885.136,722.933
885.314,722.232
885.492,721.841
885.671,721.222
885.849,720.506
886.028,719.991
886.206,719.06
886.384,718.374
886.563,717.835
886.741,717.599
886.919,716.937
887.098,716.41
887.276,715.719
887.454,715.206
887.632,714.582
887.811,713.851
887.989,713.205
888.167,712.504
888.345,711.997
888.523,711.399
888.702,710.771
888.88,710.131
889.058,709.11
889.236,708.545
889.414,707.937
889.592,707.046
889.77,706.255
889.948,705.715
890.126,705.149
890.304,704.476
890.482,703.745
890.66,702.948
890.838,702.312
891.016,701.539
891.194,700.843
891.372,699.868
891.55,699.27
891.728,698.348
891.905,697.567
892.083,696.563
892.261,695.849
892.439,695.261
892.617,694.343
892.794,693.347
892.972,692.564
893.15,691.852
893.328,691.435
893.505,690.352
893.683,689.744
893.861,688.999
894.038,688.408
894.216,687.751
894.394,686.902
894.571,686.138
894.749,685.466
894.926,684.469
895.104,683.622
895.281,682.69
895.459,681.563
895.637,680.793
895.814,679.891
895.992,679.271
896.169,677.841
896.346,676.879
896.524,676.092
896.701,675.25
896.879,674.189
897.056,673.222
897.233,672.204
897.411,671.456
897.588,670.391
897.765,669.148
897.943,668.164
898.12,667.419
898.297,666.369
898.475,665.034
898.652,664.337
898.829,663.224
899.006,662.079
899.183,660.694
899.361,659.561
899.538,658.514
899.715,657.672
899.892,656.777
900.069,655.631
900.246,654.474
900.423,653.357
900.6,651.953
900.777,651.023
900.954,649.978
901.131,648.859
901.308,647.471
901.485,646.34
901.662,645.344
901.839,644.515
902.016,643.347
902.193,642.111
902.37,640.811
902.547,639.581
902.724,638.543
902.9,637.209
903.077,636.067
903.254,634.978
903.431,633.849
903.608,632.801
903.784,631.563
903.961,630.415
904.138,628.834
904.315,627.898
904.491,626.539
904.668,625.455
904.845,624.196
905.021,622.857
905.198,621.864
905.375,620.746
905.551,619.558
905.728,618.368
905.904,617.182
906.081,615.884
906.257,614.507
906.434,613.314
906.61,611.804
906.787,610.49
906.963,609.135
907.14,607.856
907.316,606.506
907.493,605.214
907.669,603.787
907.845,602.533
908.022,601.566
908.198,600.345
908.374,598.653
908.551,597.251
908.727,596.273
908.903,595.057
909.08,593.646
909.256,592.44
909.432,591.405
909.608,590.193
909.785,588.88
909.961,587.518
910.137,586.02
910.313,584.947
910.489,583.755
910.665,582.472
910.841,581.01
911.018,579.945
911.194,578.342
911.37,577.216
911.546,575.805
911.722,574.584
911.898,573.249
912.074,571.857
912.25,570.405
912.426,568.998
912.602,567.637
912.777,566.258
912.953,564.988
913.129,563.978
913.305,562.723
913.481,561.449
913.657,560.203
913.833,558.888
914.008,557.785
914.184,556.417
914.36,555.382
914.536,553.98
914.712,552.418
914.887,551.25
915.063,550.028
915.239,549.018
915.414,547.71
915.59,546.494
915.766,545.312
915.941,544.454
916.117,543.071
916.292,542.072
916.468,541.089
916.644,539.927
916.819,538.72
916.995,537.932
917.17,536.583
917.346,535.572
917.521,534.46
917.697,532.933
917.872,531.69
918.048,530.474
918.223,529.062
918.398,528.223
918.574,526.944
918.749,526.109
918.924,524.984
919.1,523.609
919.275,522.273
919.45,520.762
919.626,519.612
919.801,518.325
919.976,517.072
920.151,515.889
920.327,514.471
920.502,513.391
920.677,512.096
920.852,511.039
921.027,509.643
921.202,508.468
921.378,507.283
921.553,506.024
921.728,505.024
921.903,503.882
922.078,502.598
922.253,501.15
922.428,500.126
922.603,499.116
922.778,498.098
922.953,496.872
923.128,495.606
923.303,494.533
923.478,493.8
923.652,492.944
923.827,491.65
924.002,490.504
924.177,489.297
924.352,487.98
924.527,486.813
924.702,485.556
924.876,484.201
925.051,482.981
925.226,481.936
925.401,480.482
925.575,479.326
925.75,478.471
925.925,477.261
926.099,476.067
926.274,474.955
926.449,473.922
926.623,472.86
926.798,471.643
926.972,470.699
927.147,469.827
927.322,468.614
927.496,467.726
927.671,466.745
927.845,465.525
928.02,464.208
928.194,463.277
928.368,462.055
928.543,460.72
928.717,459.315
928.892,458.249
929.066,457.025
929.24,455.825
929.415,454.402
929.589,453.239
929.763,452.028
929.938,450.891
930.112,449.76
930.286,448.756
930.461,447.819
930.635,446.556
930.809,445.45
930.983,444.291
931.157,443.199
931.332,441.978
931.506,441.138
931.68,440.063
931.854,439.064
932.028,437.926
932.202,436.983
932.376,436.104
932.55,435.071
932.724,433.577
932.898,432.446
933.072,431.632
933.246,430.925
933.42,429.599
933.594,428.311
933.768,427.356
933.942,426.052
934.116,424.995
934.29,423.935
934.464,423.209
934.638,422.254
934.811,421.253
934.985,420.078
935.159,418.756
935.333,417.727
935.507,416.693
935.68,415.582
935.854,414.59
936.028,413.447
936.201,412.642
936.375,411.814
936.549,410.961
936.722,410.07
936.896,409.063
937.07,407.873
937.243,407.23
937.417,406.484
937.59,405.405
937.764,404.327
937.938,403.303
938.111,402.277
938.285,401.526
938.458,400.398
938.631,399.556
938.805,398.641
938.978,397.726
939.152,396.825
939.325,396.283
939.499,395.312
939.672,394.4
939.845,393.445
940.019,392.459
940.192,391.676
940.365,390.456
940.538,389.661
940.712,388.824
940.885,387.972
941.058,387.362
941.231,386.556
941.405,385.844
941.578,384.74
941.751,383.879
941.924,383.047
942.097,382.036
942.27,381.174
942.443,380.676
942.617,379.778
942.79,379.136
942.963,378.287
943.136,377.249
943.309,376.364
943.482,375.559
943.655,374.939
943.828,373.856
944.001,372.969
944.173,372.055
944.346,371.162
944.519,370.088
944.692,369.364
944.865,368.312
945.038,367.634
945.211,366.768
945.383,365.798
945.556,364.839
945.729,364.178
945.902,363.326
946.075,362.439
946.247,361.845
946.42,361.084
946.593,360.318
946.765,359.532
946.938,358.686
947.111,358.143
947.283,357.558
947.456,356.503
947.628,355.479
947.801,355.096
947.974,353.958
948.146,352.926
948.319,351.961
948.491,351.513
948.664,350.524
948.836,349.686
949.009,349.019
949.181,348.202
949.353,347.402
949.526,346.564
949.698,345.953
949.871,345.195
950.043,344.39
950.215,343.373
950.388,342.478
950.56,342.04
950.732,341.188
950.904,340.234
951.077,339.614
951.249,338.825
951.421,338.014
951.593,337.346
951.766,336.721
951.938,336.123
952.11,335.495
952.282,334.715
952.454,333.921
952.626,333.48
952.798,332.896
952.97,332.107
953.142,331.517
953.314,330.417
953.487,329.612
953.659,328.843
953.83,328.138
954.002,327.316
954.174,326.551
954.346,325.659
954.518,324.757
954.69,324.174
954.862,323.704
955.034,323.119
955.206,322.512
955.378,321.833
955.549,321.234
955.721,320.186
955.893,319.419
956.065,318.587
956.236,318.141
956.408,317.611
956.58,316.82
956.752,316.054
956.923,315.624
957.095,314.959
957.267,314.194
957.438,313.141
957.61,312.383
957.781,311.476
957.953,310.731
958.125,310.067
958.296,309.147
958.468,308.357
958.639,307.624
958.811,307.112
958.982,306.656
959.154,306.069
959.325,305.374
959.496,304.619
959.668,303.924
959.839,303.294
960.011,302.655
960.182,302.351
960.353,301.615
960.525,300.616
960.696,299.78
960.867,299.363
961.038,298.782
961.21,298.386
961.381,297.461
961.552,296.991
961.723,296.177
961.895,295.274
962.066,294.365
962.237,293.88
962.408,293.184
962.579,292.485
962.75,291.957
962.921,291.382
963.092,290.899
963.263,290.226
963.434,289.539
963.605,288.723
963.776,287.976
963.947,287.324
964.118,286.599
964.289,285.746
964.46,285.057
964.631,284.359
964.802,283.551
964.973,282.974
965.144,282.119
965.315,281.471
965.485,280.635
965.656,279.932
965.827,279.28
965.998,278.36
966.169,277.375
966.339,277.059
966.51,276.329
966.681,275.964
966.851,275.361
967.022,274.425
967.193,273.678
967.363,273.387
967.534,272.447
967.705,271.899
967.875,271.002
968.046,270.431
968.216,269.844
968.387,269.516
968.557,268.673
968.728,268.154
968.898,267.762
969.069,267.029
969.239,266.454
969.41,266.006
969.58,265.402
969.751,264.79
969.921,264.48
970.091,263.913
970.262,263.556
970.432,263.228
970.602,262.718
970.773,261.96
970.943,261.269
971.113,260.901
971.283,260.145
971.454,259.396
971.624,259.129
971.794,258.439
971.964,257.819
972.134,257.061
972.305,256.539
972.475,256.031
972.645,255.431
972.815,254.874
972.985,254.516
973.155,253.68
973.325,253.243
973.495,252.635
973.665,252.075
973.835,251.243
974.005,250.479
974.175,250.023
974.345,249.227
974.515,248.702
974.685,248.099
974.855,247.673
975.024,247.217
975.194,246.152
975.364,245.298
975.534,244.438
975.704,243.631
975.874,242.953
976.043,242.457
976.213,241.778
976.383,241.084
976.553,240.492
976.722,240.308
976.892,239.568
977.062,239.003
977.231,238.062
977.401,237.666
977.57,237.029
977.74,236.429
977.91,235.738
978.079,235.19
978.249,234.487
978.418,233.857
978.588,233.239
978.757,232.702
978.927,232.298
979.096,231.499
979.266,231.164
979.435,230.551
979.604,230.254
979.774,229.847
979.943,229.245
980.113,228.533
980.282,227.893
980.451,227.141
980.621,226.643
980.79,225.884
980.959,225.28
981.128,224.721
981.298,224.13
981.467,223.251
981.636,222.509
981.805,222.168
981.974,221.835
982.143,220.81
982.313,220.112
982.482,219.484
982.651,218.943
982.82,218.182
982.989,217.712
983.158,217.15
983.327,216.497
983.496,216.035
983.665,215.313
983.834,214.739
984.003,214.169
984.172,213.49
984.341,213.034
984.51,212.482
984.679,211.928
984.847,210.998
985.016,210.387
985.185,209.752
985.354,208.971
985.523,208.392
985.692,207.973
985.86,207.302
986.029,206.665
986.198,205.932
986.366,205.366
986.535,204.631
986.704,204.126
986.873,203.494
987.041,202.855
987.21,202.304
987.378,201.796
987.547,201.463
987.716,200.841
987.884,199.847
988.053,199.328
988.221,198.91
988.39,198.661
988.558,198.061
988.727,197.42
988.895,196.722
989.064,195.93
989.232,195.26
989.4,194.773
989.569,194.2
989.737,193.699
989.905,193.363
990.074,192.899
990.242,192.446
990.41,191.588
990.579,190.826
990.747,190.266
990.915,189.723
991.083,188.935
991.252,188.262
991.42,187.825
991.588,187.561
991.756,187.183
991.924,186.745
992.092,186.266
992.261,185.879
992.429,185.432
992.597,184.978
992.765,184.45
992.933,183.809
993.101,182.953
993.269,182.493
993.437,181.896
993.605,181.493
993.773,181.153
993.941,180.318
994.109,179.921
994.277,179.243
994.444,178.612
994.612,178.183
994.78,177.889
994.948,177.219
995.116,176.622
995.284,175.71
995.451,175.298
995.619,174.823
995.787,174.262
995.955,173.839
996.122,173.57
996.29,173.162
996.458,172.722
996.625,172.287
996.793,171.808
996.961,171.238
997.128,170.482
997.296,170.11
997.463,169.62
997.631,169.135
997.798,168.853
997.966,168.587
998.133,168.281
998.301,168.153
998.468,167.948
998.636,167.638
998.803,167.083
998.971,166.676
999.138,166.22
999.305,165.934
999.473,165.912
999.64,165.637
999.807,165.247
999.975,164.933
1000.14,164.589
1000.31,163.912
1000.48,163.799
1000.64,163.124
1000.81,162.533
1000.98,162.394
1001.15,162.212
1001.31,161.451
1001.48,161.33
1001.65,160.649
1001.81,160.047
1001.98,159.764
1002.15,159.514
1002.32,159.229
1002.48,159.133
1002.65,158.558
1002.82,158.052
1002.98,157.62
1003.15,157.213
1003.32,156.628
1003.48,156.282
1003.65,156.005
1003.82,155.248
1003.98,154.878
1004.15,154.264
1004.32,153.683
1004.49,152.976
1004.65,152.724
1004.82,152.16
1004.99,151.55
1005.15,151.503
1005.32,151.131
1005.49,150.445
1005.65,150.07
1005.82,149.441
1005.99,149.16
1006.15,148.684
1006.32,147.882
1006.49,147.62
1006.65,147.102
1006.82,146.488
1006.99,145.934
1007.15,145.573
1007.32,145.026
1007.49,144.457
1007.65,144.173
1007.82,143.801
1007.98,143.617
1008.15,143.349
1008.32,143.062
1008.48,142.827
1008.65,142.54
1008.82,142.306
1008.98,142.128
1009.15,142.006
1009.32,141.838
1009.48,141.463
1009.65,141.292
1009.81,140.993
1009.98,140.696
1010.15,140.271
1010.31,139.892
1010.48,139.185
1010.65,138.919
1010.81,138.653
1010.98,138.435
1011.14,137.832
1011.31,137.594
1011.48,137.297
1011.64,136.926
1011.81,136.308
1011.97,136.061
1012.14,135.664
1012.31,135.237
1012.47,134.817
1012.64,134.239
1012.8,133.782
1012.97,133.282
1013.14,132.705
1013.3,132.481
1013.47,132.053
1013.63,131.729
1013.8,131.307
1013.97,130.916
1014.13,130.859
1014.3,130.277
1014.46,129.769
1014.63,129.169
1014.79,128.936
1014.96,128.731
1015.13,128.7
1015.29,128.402
1015.46,127.939
1015.62,127.492
1015.79,127.144
1015.95,126.924
1016.12,126.709
1016.29,126.368
1016.45,126.084
1016.62,125.528
1016.78,125.232
1016.95,124.819
1017.11,124.508
1017.28,124.23
1017.44,124.004
1017.61,123.829
1017.78,123.538
1017.94,123.111
1018.11,123.067
1018.27,122.716
1018.44,122.404
1018.6,122.064
1018.77,121.567
1018.93,121.295
1019.1,120.724
1019.26,120.09
1019.43,119.777
1019.59,119.456
1019.76,118.954
1019.92,118.5
1020.09,118.353
1020.25,118.063
1020.42,117.716
1020.59,117.324
1020.75,116.796
1020.92,116.498
1021.08,116.055
1021.25,116.054
1021.41,116.311
1021.58,116.155
1021.74,115.91
1021.91,115.401
1022.07,115.185
1022.24,114.835
1022.4,114.759
1022.57,114.36
1022.73,114.065
1022.89,113.515
1023.06,113.409
1023.22,112.926
1023.39,112.608
1023.55,112.368
1023.72,112.161
1023.88,112.046
1024.05,111.797
1024.21,111.571
1024.38,111.335
1024.54,111.271
1024.71,111.186
1024.87,110.735
1025.04,110.19
1025.2,109.777
1025.37,109.621
1025.53,109.561
1025.7,109.182
1025.86,108.73
1026.02,108.21
1026.19,107.888
1026.35,107.763
1026.52,107.658
1026.68,107.429
1026.85,107.227
1027.01,107.181
1027.18,106.891
1027.34,106.983
1027.5,97.0123
1027.67,87.0592
1027.83,132.606
1028,103.156
1028.16,86.3219
1028.33,79.8503
1028.49,107.17
1028.65,87.8374
1028.82,91.5237
1028.98,89.5167
1029.15,79.8503
1029.31,64.8592
1029.48,84.5606
1029.64,80.3418
1029.8,158.001
1029.97,113.478
1030.13,125.766
1030.3,74.8533
1030.46,73.051
1030.62,127.117
1030.79,84.6425
1030.95,47.902
1031.12,37.8669
1031.28,100.658
1031.44,127.568
1031.61,140.429
1031.77,88.1651
1031.94,81.5296
1032.1,97.34
1032.26,86.4857
1032.43,83.2499
1032.59,93.7355
1032.76,93.6536
1032.92,128.92
1033.08,71.5355
1033.25,101.559
1033.41,94.3909
1033.57,106.269
1033.74,79.6045
1033.9,101.641
1034.07,143.747
1034.23,118.721
1034.39,61.7463
1034.56,156.731
1034.72,78.4577
1034.88,90.1721
1035.05,77.7614
1035.21,63.057
1035.37,84.8473
1035.54,63.3846
1035.7,58.7972
1035.86,97.7905
1036.03,95.292
1036.19,77.7204
1036.35,52.6533
1036.52,98.3639
1036.68,111.471
1036.84,101.231
1037.01,76.4507
1037.17,55.1928
1037.33,86.9772
1037.5,88.6156
1037.66,118.352
1037.82,141.699
1037.99,118.188
1038.15,101.108
1038.31,90.7045
1038.48,70.0201
1038.64,54.7422
1038.8,99.7156
1038.97,46.5094
1039.13,97.1352
1039.29,53.6363
1039.46,112.126
1039.62,70.1429
1039.78,74.1979
1039.95,95.8654
1040.11,92.0152
1040.27,97.7495
1040.43,80.3828
1040.6,81.161
1040.76,79.154
1040.92,97.5857
1041.09,87.8783
1041.25,76.3278
1041.41,64.982
1041.57,86.3219
1041.74,107.621
1041.9,110.037
1042.06,74.6894
1042.23,71.7813
1042.39,63.4256
1042.55,77.147
1042.71,117.041
1042.88,92.8754
1043.04,89.5986
1043.2,67.3987
1043.36,143.542
1043.53,94.4318
1043.69,105.655
EndSpectrumFile,BASELINE
SpectrumFile,RAW DATA
Version,1.000000
Location,home
Customer,rudolf
SampleInfo,
GPSData,51.118491,-114.185425,1143.658447,1107,71211
SystemTime,2011,12,7,0,12,21,31
Pipe km,0.000000
Pre-Dilution Factor,1.000000
Freeform Info,
Concentration,923.933744
CalibrationName,USB4000 dark
Unique Calibration File ID,20110323-0226570968-TESTBOX2-7E963C-00008931
CalibrationWavelength,700.000000
CalibrationType,2,0.000000,0.616679
CalibrationRSquared,1.000000
CalibrationConcentrations [ppm],2,0.000000,10.000000
CalibrationCounts,2,0.000000,16.215900
CalibrationWarnLow,0.000000
CalibrationWarnHigh,10.000000
CalibrationErrorLow,0.000000
CalibrationErrorHigh,0.000000
Spectrometer Name,USB4000
Spectrometer Serial,USB4H02759
IntegrationTime [ms],50.000000
AveragedSpectra,50
BoxcarWidth,100
WavelengthRange [nm],346.775360,1043.690197
IntensityRange [counts],-138.323223,5399.807932
WavelengthCount,3648
Wavelength [nm],Intensity [counts]
346.775,-136.357
346.991,-136.357
347.206,-136.357
347.421,-138.323
347.637,-130.5
347.852,76.3449
348.067,35.877
348.282,55.2098
348.498,35.836
348.713,62.9511
348.928,82.3249
349.143,73.0272
349.358,25.2685
349.574,49.3526
349.789,33.87
350.004,103.173
350.219,38.6213
350.434,50.2947
350.649,73.6415
350.864,41.4475
351.079,78.8024
351.295,75.4847
351.51,27.2755
351.725,33.7062
351.94,2.94566
352.155,38.9899
352.37,61.1899
352.585,52.9571
352.8,88.264
353.015,18.4283
353.23,105.549
353.445,36.6143
353.66,49.1888
353.875,80.9323
354.09,95.2271
354.305,31.5763
354.52,55.3327
354.735,39.5224
354.949,73.1091
355.164,89.9843
355.379,46.2397
355.594,73.5596
355.809,92.1142
356.024,81.3009
356.239,65.8183
356.453,96.6607
356.668,49.4755
356.883,69.2589
357.098,96.9474
357.313,71.5117
357.527,85.3559
357.742,55.4556
357.957,40.7921
358.172,63.8932
358.386,71.9212
358.601,55.8242
358.816,101.781
359.03,35.918
359.245,48.8611
359.46,100.142
359.674,58.8962
359.889,21.9918
360.104,91.7046
360.318,82.4068
360.533,63.4017
360.748,52.5884
360.962,68.5626
361.177,37.8021
361.391,66.0641
361.606,51.5235
361.82,72.3308
362.035,71.8803
362.25,37.7611
362.464,53.6534
362.679,127.585
362.893,69.5046
363.108,82.6936
363.322,101.781
363.536,50.1718
363.751,57.9951
363.965,62.9921
364.18,62.9102
364.394,78.1471
364.609,43.946
364.823,67.129
365.037,72.8633
365.252,65.2858
365.466,39.3995
365.68,60.4936
365.895,58.3637
366.109,76.7954
366.323,48.001
366.538,47.6733
366.752,37.2287
366.966,54.8412
367.181,47.6733
367.395,47.6323
367.609,34.0748
367.823,109.235
368.038,66.6784
368.252,63.0805
368.466,64.0921
368.68,65.262
368.894,66.2493
369.109,67.1669
369.323,68.3411
369.537,68.3013
369.751,68.512
369.965,68.7272
370.179,68.9108
370.393,69.093
370.607,69.1006
370.822,69.4058
371.036,69.7588
371.25,69.8613
371.464,70.1366
371.678,70.1237
371.892,70.3892
372.106,70.4487
372.32,70.7707
372.534,71.0018
372.748,71.2333
372.962,71.347
373.176,71.594
373.39,71.9329
373.604,72.4405
373.818,72.7667
374.031,72.7979
374.245,73.0993
374.459,73.1747
374.673,73.4469
374.887,73.4486
375.101,73.7365
375.315,73.9708
375.529,74.0505
375.742,74.0558
375.956,74.2508
376.17,74.3666
376.384,74.5964
376.598,74.5907
376.811,74.5907
377.025,75.027
377.239,75.3015
377.453,75.52
377.666,75.7576
377.88,75.8063
378.094,76.2587
378.307,76.635
378.521,76.8859
378.735,76.7775
378.948,76.9409
379.162,77.0455
379.376,77.3169
379.589,77.8547
379.803,78.0741
380.016,78.0008
380.23,78.4745
380.444,78.6109
380.657,78.9381
380.871,79.2917
381.084,79.2925
381.298,79.3316
381.511,79.5554
381.725,79.9413
381.938,80.2855
382.152,80.5252
382.365,80.7153
382.579,80.882
382.792,81.2088
383.006,81.3957
383.219,81.6771
383.433,81.9058
383.646,82.2051
383.859,82.4631
384.073,82.7525
384.286,82.5098
384.5,82.6406
384.713,82.8723
384.926,82.9281
385.14,83.4989
385.353,83.7106
385.566,83.9947
385.779,84.2064
385.993,84.4086
386.206,84.833
386.419,85.0028
386.633,85.0672
386.846,85.5571
387.059,86.037
387.272,86.3493
387.485,86.851
387.699,86.9578
387.912,87.379
388.125,87.8471
388.338,88.6119
388.551,89.0602
388.764,89.4374
388.978,89.7859
389.191,90.1545
389.404,90.3748
389.617,90.5423
389.83,90.7848
390.043,91.2156
390.256,91.3089
390.469,91.7845
390.682,91.9204
390.895,92.2793
391.108,92.4095
391.321,92.7268
391.534,92.662
391.747,92.9947
391.96,92.8425
392.173,93.3302
392.386,94.0699
392.599,94.5728
392.812,95.3323
393.025,95.7117
393.238,95.996
393.451,96.3595
393.663,96.502
393.876,97.1689
394.089,97.324
394.302,97.8917
394.515,98.2812
394.728,98.4719
394.941,98.8181
395.153,99.0097
395.366,99.2811
395.579,99.7135
395.792,99.8706
396.004,100.459
396.217,100.714
396.43,101.194
396.643,101.916
396.855,102.093
397.068,102.564
397.281,103.04
397.493,103.374
397.706,103.704
397.919,104.129
398.131,104.861
398.344,105.228
398.557,105.509
398.769,105.487
398.982,106.052
399.194,106.332
399.407,106.985
399.619,107.466
399.832,108.003
400.045,108.63
400.257,109.63
400.47,110.207
400.682,110.981
400.895,111.681
401.107,112.351
401.319,112.805
401.532,113.171
401.744,113.756
401.957,114.379
402.169,114.568
402.382,115.189
402.594,115.704
402.806,116.451
403.019,117.114
403.231,117.518
403.444,117.898
403.656,118.47
403.868,119.229
404.081,119.974
404.293,120.782
404.505,121.164
404.717,121.607
404.93,122.405
405.142,122.839
405.354,123.634
405.566,124.327
405.779,124.886
405.991,125.405
406.203,126.111
406.415,126.632
406.627,127.137
406.84,127.674
407.052,128.847
407.264,129.118
407.476,129.705
407.688,130.676
407.9,131.403
408.112,132.189
408.324,133.24
408.537,133.967
408.749,135.064
408.961,135.996
409.173,136.909
409.385,137.562
409.597,138.051
409.809,138.758
410.021,139.438
410.233,140.276
410.445,140.84
410.657,142.111
410.869,142.942
411.081,143.678
411.292,144.627
411.504,145.477
411.716,146.563
411.928,147.618
412.14,148.453
412.352,149.346
412.564,150.255
412.776,151.042
412.988,152.027
413.199,152.591
413.411,153.388
413.623,154.121
413.835,154.952
414.047,156.01
414.258,157.192
414.47,158.219
414.682,158.901
414.894,159.92
415.105,160.585
415.317,161.448
415.529,162.257
415.74,163.131
415.952,164.274
416.164,165.214
416.375,166.121
416.587,167.154
416.799,168.376
417.01,169.394
417.222,170.484
417.433,171.801
417.645,172.726
417.857,173.804
418.068,174.899
418.28,176.032
418.491,177.086
418.703,178.445
418.914,179.847
419.126,181.215
419.337,182.563
419.549,183.519
419.76,184.477
419.972,185.554
420.183,186.773
420.394,187.793
420.606,189.056
420.817,189.872
421.029,190.931
421.24,192.09
421.451,193.407
421.663,194.905
421.874,196.24
422.085,197.295
422.297,198.29
422.508,199.588
422.719,201.414
422.931,202.556
423.142,203.858
423.353,205.341
423.565,206.748
423.776,208.062
423.987,209.757
424.198,211.278
424.409,212.232
424.621,213.548
424.832,214.873
425.043,216.358
425.254,217.897
425.465,219.251
425.676,220.84
425.888,222.414
426.099,223.689
426.31,225.026
426.521,226.492
426.732,227.829
426.943,229.401
427.154,230.988
427.365,232.237
427.576,233.689
427.787,234.857
427.998,236.249
428.209,237.789
428.42,239.44
428.631,241.108
428.842,242.566
429.053,243.903
429.264,245.696
429.475,247.122
429.686,248.599
429.897,250.182
430.108,251.446
430.319,253.393
430.529,254.792
430.74,256.18
430.951,257.686
431.162,259.148
431.373,260.626
431.584,262.442
431.794,264.261
432.005,265.787
432.216,267.582
432.427,269.135
432.637,270.945
432.848,272.955
433.059,274.417
433.27,275.926
433.48,277.843
433.691,279.623
433.902,281.657
434.112,283.272
434.323,285.112
434.534,286.976
434.744,288.626
434.955,289.935
435.166,291.465
435.376,292.928
435.587,294.876
435.797,296.617
436.008,298.209
436.218,300.369
436.429,302.189
436.64,304.191
436.85,305.825
437.061,307.676
437.271,309.969
437.482,311.894
437.692,314.11
437.902,315.892
438.113,317.647
438.323,319.569
438.534,321.257
438.744,322.983
438.955,325.113
439.165,327.03
439.375,328.771
439.586,330.307
439.796,332.284
440.006,334.069
440.217,336.269
440.427,338.229
440.637,340.004
440.848,341.753
441.058,343.85
441.268,346.077
441.479,348.023
441.689,350.18
441.899,352.307
442.109,354.24
442.319,356.413
442.53,358.447
442.74,360.265
442.95,362.644
443.16,364.61
443.37,366.994
443.58,368.868
443.791,371.472
444.001,373.677
444.211,375.749
444.421,378.009
444.631,380.636
444.841,383.059
445.051,385.215
445.261,387.149
445.471,390.935
445.681,393.378
445.891,395.785
446.101,398.076
446.311,400.387
446.521,402.535
446.731,404.764
446.941,407.337
447.151,410.068
447.361,412.241
447.571,414.401
447.781,416.961
447.991,419.227
448.201,421.732
448.41,424.661
448.62,427.013
448.83,429.444
449.04,431.747
449.25,434.514
449.46,436.87
449.669,439.379
449.879,441.884
450.089,444.234
450.299,447.062
450.508,449.398
450.718,451.968
450.928,454.265
451.138,456.701
451.347,459.371
451.557,462.026
451.767,464.713
451.976,467.409
452.186,470.277
452.396,472.796
452.605,475.298
452.815,478.141
453.025,480.531
453.234,483.299
453.444,485.996
453.653,488.677
453.863,491.146
454.072,493.735
454.282,496.495
454.491,499.156
454.701,502.026
454.911,504.82
455.12,507.753
455.329,510.459
455.539,513.575
455.748,516.461
455.958,519.151
456.167,522.159
456.377,525.043
456.586,527.559
456.795,530.272
457.005,533.321
457.214,536.565
457.424,539.54
457.633,542.509
457.842,545.427
458.052,548.453
458.261,551.329
458.47,554.372
458.679,557.234
458.889,560.205
459.098,563.324
459.307,566.248
459.517,569.216
459.726,572.147
459.935,575.446
460.144,578.518
460.353,581.614
460.563,584.88
460.772,588.005
460.981,591.354
461.19,594.443
461.399,597.506
461.608,600.703
461.817,604.351
462.026,607.849
462.236,611.248
462.445,614.519
462.654,618.16
462.863,621.452
463.072,625.065
463.281,628.486
463.49,631.919
463.699,635.564
463.908,638.961
464.117,642.18
464.326,645.991
464.535,649.773
464.744,653.462
464.952,656.639
465.161,660.036
465.37,663.722
465.579,667.134
465.788,670.696
465.997,674.579
466.206,678.279
466.415,682.185
466.623,686.264
466.832,690.047
467.041,694.038
467.25,697.907
467.459,701.472
467.667,705.428
467.876,709.568
468.085,713.745
468.294,717.812
468.502,721.927
468.711,726.377
468.92,730.64
469.128,735.236
469.337,739.228
469.546,743.355
469.754,747.81
469.963,752.113
470.172,756.818
470.38,761.238
470.589,765.258
470.798,769.529
471.006,773.734
471.215,778.278
471.423,782.78
471.632,787.059
471.84,791.621
472.049,796.237
472.257,800.898
472.466,805.461
472.674,810.178
472.883,814.957
473.091,819.328
473.3,824.135
473.508,829.023
473.716,833.657
473.925,838.147
474.133,842.969
474.342,847.739
474.55,852.661
474.758,857.714
474.967,862.116
475.175,867.329
475.383,872.414
475.592,877.249
475.8,881.969
476.008,886.481
476.217,891.489
476.425,896.605
476.633,901.41
476.841,906.205
477.05,911.353
477.258,916.772
477.466,921.704
477.674,926.556
477.882,931.842
478.091,937.135
478.299,942.216
478.507,947.201
478.715,952.475
478.923,957.539
479.131,962.9
479.339,967.827
479.547,973.098
479.755,978.08
479.963,983.376
480.171,988.691
480.38,993.825
480.588,999.205
480.796,1004.51
481.004,1009.23
481.212,1014.32
481.42,1019.84
481.627,1025.44
481.835,1030.9
482.043,1036.38
482.251,1041.54
482.459,1046.89
482.667,1052.2
482.875,1057.53
483.083,1063.3
483.291,1068.54
483.499,1073.92
483.706,1079.16
483.914,1084.42
484.122,1089.75
484.33,1095.12
484.538,1100.52
484.745,1105.75
484.953,1110.76
485.161,1115.97
485.369,1121.31
485.576,1127.08
485.784,1132.05
485.992,1137.48
486.199,1142.89
486.407,1148.07
486.615,1153.27
486.822,1158.3
487.03,1163.54
487.238,1168.86
487.445,1172.25
487.653,1177.31
487.861,1182.62
488.068,1187.65
488.276,1192.73
488.483,1198.01
488.691,1203.09
488.898,1208.21
489.106,1213.05
489.313,1218.36
489.521,1223.71
489.728,1228.54
489.936,1233.77
490.143,1238.97
490.351,1243.62
490.558,1248.77
490.766,1253.72
490.973,1258.85
491.18,1263.53
491.388,1268.31
491.595,1273.36
491.802,1278.54
492.01,1283.44
492.217,1288.01
492.424,1293.25
492.632,1297.93
492.839,1303.08
493.046,1307.9
493.254,1312.6
493.461,1317.26
493.668,1322.1
493.875,1327
494.083,1331.24
494.29,1336.02
494.497,1340.92
494.704,1345.51
494.911,1350.13
495.119,1354.67
495.326,1359.46
495.533,1364.19
495.74,1368.71
495.947,1373.13
496.154,1377.52
496.361,1381.69
496.568,1385.71
496.775,1389.84
496.982,1394.01
497.19,1398.56
497.397,1402.81
497.604,1407.23
497.811,1411.47
498.018,1415.85
498.225,1420.13
498.432,1424.42
498.638,1428.55
498.845,1433.05
499.052,1436.8
499.259,1440.92
499.466,1445.09
499.673,1448.86
499.88,1453.18
500.087,1457.1
500.294,1461
500.501,1465.05
500.707,1468.85
500.914,1472.46
501.121,1476.52
501.328,1480.18
501.535,1484.25
501.741,1488.21
501.948,1491.86
502.155,1495.76
502.362,1499.1
502.568,1502.74
502.775,1506.19
502.982,1509.73
503.188,1513.08
503.395,1516.5
503.602,1519.45
503.808,1522.44
504.015,1525.5
504.222,1528.59
504.428,1531.74
504.635,1535.54
504.841,1538.32
505.048,1541.58
505.254,1544.78
505.461,1548.02
505.668,1550.85
505.874,1554.13
506.081,1557.24
506.287,1559.77
506.494,1562.46
506.7,1565.5
506.907,1568.67
507.113,1571.29
507.319,1574.26
507.526,1577.18
507.732,1579.93
507.939,1582.55
508.145,1584.85
508.351,1587.17
508.558,1589.27
508.764,1591.63
508.97,1593.93
509.177,1596.48
509.383,1598.85
509.589,1600.89
509.796,1602.69
510.002,1605.01
510.208,1606.92
510.414,1608.66
510.621,1610.58
510.827,1612.22
511.033,1614.4
511.239,1616.5
511.445,1618.13
511.652,1619.98
511.858,1621.68
512.064,1623.31
512.27,1625.19
512.476,1626.62
512.682,1628.38
512.888,1630.04
513.095,1631.33
513.301,1632.83
513.507,1634.01
513.713,1635.31
513.919,1636.69
514.125,1637.82
514.331,1639.2
514.537,1640.61
514.743,1641.86
514.949,1643.03
515.155,1644.17
515.361,1645.28
515.567,1646.44
515.773,1647.29
515.978,1648.14
516.184,1648.97
516.39,1649.28
516.596,1650.27
516.802,1650.87
517.008,1651.5
517.214,1652.15
517.419,1653.07
517.625,1654
517.831,1654.69
518.037,1654.98
518.243,1655.67
518.448,1656.51
518.654,1657.05
518.86,1657.27
519.066,1658.02
519.271,1658.38
519.477,1658.66
519.683,1658.78
519.888,1659.2
520.094,1659.44
520.3,1659.38
520.505,1659.71
520.711,1659.89
520.917,1660.21
521.122,1660.51
521.328,1660.64
521.533,1660.53
521.739,1660.83
521.944,1660.77
522.15,1660.64
522.356,1660.56
522.561,1660.75
522.767,1660.47
522.972,1660.13
523.177,1660.07
523.383,1660.03
523.588,1659.79
523.794,1659.41
523.999,1658.93
524.205,1658.76
524.41,1658.38
524.615,1657.57
524.821,1657.07
525.026,1656.43
525.232,1655.86
525.437,1655.47
525.642,1654.95
525.847,1654.39
526.053,1653.79
526.258,1653.17
526.463,1652.53
526.669,1651.86
526.874,1650.68
527.079,1649.41
527.284,1648.69
527.49,1647.61
527.695,1646.37
527.9,1645.45
528.105,1644.2
528.31,1643.18
528.515,1642.08
528.721,1640.91
528.926,1639.58
529.131,1638.31
529.336,1637.27
529.541,1636.27
529.746,1635.11
529.951,1633.77
530.156,1632.73
530.361,1631.16
530.566,1629.87
530.771,1628.45
530.976,1626.95
531.181,1625.65
531.386,1624.09
531.591,1622.42
531.796,1621.02
532.001,1619.55
532.206,1617.69
532.411,1616.12
532.616,1614.54
532.821,1612.77
533.025,1610.92
533.23,1608.92
533.435,1607.23
533.64,1605.41
533.845,1603.41
534.05,1601.65
534.254,1599.71
534.459,1597.81
534.664,1595.78
534.869,1594.07
535.073,1592.16
535.278,1590.11
535.483,1588.17
535.688,1586.11
535.892,1584.16
536.097,1582.12
536.302,1579.92
536.506,1578.09
536.711,1576
536.916,1573.65
537.12,1571.56
537.325,1569.78
537.529,1567.59
537.734,1565.49
537.938,1564.25
538.143,1562.5
538.348,1560.3
538.552,1557.86
538.757,1555.79
538.961,1553.77
539.166,1551.63
539.37,1549.47
539.575,1546.92
539.779,1544.47
539.983,1542.2
540.188,1539.7
540.392,1537.37
540.597,1535.06
540.801,1532.57
541.005,1530.37
541.21,1527.52
541.414,1525.1
541.618,1522.85
541.823,1520.39
542.027,1517.87
542.231,1515.58
542.436,1512.82
542.64,1510.49
542.844,1507.64
543.048,1504.84
543.253,1502.1
543.457,1499.17
543.661,1496.58
543.865,1494
544.069,1491.21
544.274,1488.6
544.478,1486.06
544.682,1483.61
544.886,1481.1
545.09,1478.85
545.294,1476.19
545.498,1473.79
545.702,1470.99
545.907,1467.86
546.111,1465.19
546.315,1462.44
546.519,1459.58
546.723,1456.5
546.927,1453.92
547.131,1451.2
547.335,1448.2
547.539,1445.71
547.743,1443.11
547.947,1440.42
548.15,1437.45
548.354,1434.67
548.558,1431.88
548.762,1428.93
548.966,1425.93
549.17,1422.97
549.374,1420.18
549.578,1417.32
549.781,1414.78
549.985,1411.93
550.189,1409.32
550.393,1406.83
550.597,1404.03
550.8,1401.1
551.004,1398.55
551.208,1395.99
551.412,1393.38
551.615,1390.65
551.819,1388.09
552.023,1385.38
552.226,1382.48
552.43,1379.59
552.634,1376.6
552.837,1373.95
553.041,1371.03
553.244,1368.13
553.448,1365.68
553.652,1363.06
553.855,1360.49
554.059,1358.08
554.262,1355.59
554.466,1353.11
554.669,1350.6
554.873,1348.14
555.076,1345.77
555.28,1343.08
555.483,1340.56
555.687,1337.71
555.89,1335.03
556.094,1332.27
556.297,1329.75
556.5,1327.11
556.704,1324.58
556.907,1322.17
557.111,1319.9
557.314,1317.34
557.517,1315.28
557.721,1312.94
557.924,1310.76
558.127,1308.37
558.33,1306.11
558.534,1303.95
558.737,1301.66
558.94,1299.09
559.144,1297.08
559.347,1294.91
559.55,1292.59
559.753,1290.51
559.956,1288.32
560.159,1286.29
560.363,1284.62
560.566,1282.69
560.769,1280.88
560.972,1278.84
561.175,1277.07
561.378,1275.41
561.581,1273.42
561.784,1271.68
561.987,1269.85
562.19,1267.76
562.394,1266.12
562.597,1265.09
562.8,1263.37
563.003,1261.86
563.205,1260.24
563.408,1259.03
563.611,1257.73
563.814,1256.74
564.017,1255.69
564.22,1254.13
564.423,1252.73
564.626,1251.57
564.829,1250.51
565.032,1249.66
565.235,1248.29
565.437,1247.38
565.64,1246.29
565.843,1245.74
566.046,1245.2
566.249,1244.53
566.451,1243.46
566.654,1242.86
566.857,1242.38
567.06,1241.68
567.262,1241.42
567.465,1241.32
567.668,1241.01
567.87,1240.71
568.073,1240.6
568.276,1240.25
568.478,1240.28
568.681,1240.49
568.884,1240.44
569.086,1240.83
569.289,1240.96
569.491,1241.46
569.694,1241.77
569.896,1242.29
570.099,1242.97
570.301,1243.21
570.504,1243.51
570.706,1243.83
570.909,1244.25
571.111,1244.93
571.314,1246.08
571.516,1246.89
571.719,1247.85
571.921,1248.79
572.124,1249.89
572.326,1250.86
572.528,1252.04
572.731,1253.28
572.933,1254.53
573.135,1256.18
573.338,1257.42
573.54,1258.7
573.742,1260.08
573.945,1261.83
574.147,1263.4
574.349,1264.76
574.551,1266.35
574.754,1268.05
574.956,1269.88
575.158,1271.34
575.36,1273.5
575.562,1275.52
575.765,1277.19
575.967,1279.01
576.169,1281.29
576.371,1283.3
576.573,1285.54
576.775,1287.33
576.977,1289.38
577.179,1291.51
577.382,1293.46
577.584,1295.68
577.786,1297.99
577.988,1300.56
578.19,1302.58
578.392,1305.07
578.594,1307.81
578.796,1309.81
578.998,1312.09
579.2,1314.55
579.401,1317.2
579.603,1319.82
579.805,1322.35
580.007,1324.75
580.209,1326.87
580.411,1330.15
580.613,1333.18
580.815,1336.09
581.016,1338.78
581.218,1341.71
581.42,1344.61
581.622,1347.6
581.824,1350.85
582.025,1354.21
582.227,1357.42
582.429,1360.1
582.631,1362.94
582.832,1365.99
583.034,1369.05
583.236,1372.07
583.437,1375.2
583.639,1378.43
583.841,1381.62
584.042,1385.16
584.244,1388.55
584.446,1391.95
584.647,1395.22
584.849,1398.4
585.05,1401.56
585.252,1404.67
585.453,1407.83
585.655,1411.28
585.856,1414.38
586.058,1417.78
586.259,1421.14
586.461,1424.47
586.662,1428.15
586.864,1431.83
587.065,1435.64
587.267,1439.02
587.468,1442.73
587.67,1446.59
587.871,1450.13
588.072,1453.64
588.274,1457.35
588.475,1461.08
588.676,1464.54
588.878,1468.2
589.079,1472.07
589.28,1475.69
589.481,1479.29
589.683,1482.89
589.884,1486.85
590.085,1490.7
590.286,1494.58
590.488,1498.25
590.689,1501.9
590.89,1505.51
591.091,1508.93
591.292,1512.73
591.494,1516.43
591.695,1520.07
591.896,1523.77
592.097,1527.57
592.298,1531.28
592.499,1535.03
592.7,1538.81
592.901,1542.79
593.102,1547
593.303,1551.16
593.504,1555.08
593.705,1559.09
593.906,1563.11
594.107,1567.04
594.308,1570.8
594.509,1574.45
594.71,1578.05
594.911,1581.89
595.112,1585.61
595.313,1589.48
595.514,1593.25
595.715,1596.9
595.915,1600.74
596.116,1604.35
596.317,1608.57
596.518,1612.5
596.719,1616.45
596.92,1620.29
597.12,1624.12
597.321,1627.98
597.522,1631.93
597.723,1635.55
597.923,1639.42
598.124,1642.88
598.325,1646.84
598.525,1649.97
598.726,1653.72
598.927,1657.47
599.127,1660.91
599.328,1664.69
599.529,1668.54
599.729,1671.79
599.93,1675.61
600.13,1679.02
600.331,1682.25
600.531,1685.76
600.732,1689.31
600.933,1692.49
601.133,1695.94
601.334,1699.48
601.534,1702.66
601.734,1705.8
601.935,1709.16
602.135,1712.3
602.336,1715.47
602.536,1718.6
602.737,1722.04
602.937,1725.18
603.137,1727.77
603.338,1730.61
603.538,1733.6
603.738,1736.85
603.939,1739.95
604.139,1742.76
604.339,1745.64
604.54,1748.25
604.74,1751.48
604.94,1754.29
605.14,1757.1
605.341,1759.66
605.541,1762.5
605.741,1765.12
605.941,1767.63
606.141,1770.5
606.342,1772.95
606.542,1775.54
606.742,1777.93
606.942,1780.67
607.142,1783.33
607.342,1785.8
607.542,1788.18
607.742,1790.24
607.942,1792.13
608.142,1794.26
608.343,1796.73
608.543,1798.94
608.743,1801.14
608.943,1803.11
609.143,1805.16
609.342,1807.24
609.542,1809.15
609.742,1811.21
609.942,1813.05
610.142,1814.61
610.342,1816.65
610.542,1818.2
610.742,1820.3
610.942,1822.08
611.142,1824.15
611.341,1826.01
611.541,1827.38
611.741,1828.69
611.941,1830.24
612.141,1831.62
612.34,1833.19
612.54,1834.54
612.74,1836.31
612.94,1837.58
613.139,1839.07
613.339,1840.14
613.539,1841.49
613.738,1842.63
613.938,1844.08
614.138,1845.45
614.337,1846.45
614.537,1847.86
614.736,1848.88
614.936,1850.4
615.136,1851.46
615.335,1852.31
615.535,1853.56
615.734,1854.69
615.934,1855.84
616.133,1856.8
616.333,1858.14
616.532,1859.09
616.732,1860.55
616.931,1861.48
617.131,1862.82
617.33,1863.97
617.529,1865.18
617.729,1866.17
617.928,1867.16
618.128,1867.95
618.327,1868.61
618.526,1869.37
618.726,1870.4
618.925,1871.23
619.124,1872
619.324,1872.95
619.523,1873.97
619.722,1874.78
619.921,1875.71
620.121,1876.26
620.32,1877.61
620.519,1878.6
620.718,1879.15
620.917,1879.72
621.117,1880.56
621.316,1881.36
621.515,1882.1
621.714,1883.05
621.913,1883.72
622.112,1884.64
622.311,1885.14
622.51,1886
622.709,1886.95
622.909,1888.08
623.108,1889.3
623.307,1889.78
623.506,1890.89
623.705,1891.81
623.904,1892.5
624.103,1893.21
624.301,1894.08
624.5,1895
624.699,1896.16
624.898,1897.11
625.097,1898.26
625.296,1899.36
625.495,1900.56
625.694,1901.39
625.893,1902.7
626.091,1903.79
626.29,1905.15
626.489,1905.93
626.688,1906.98
626.887,1907.8
627.085,1908.74
627.284,1909.28
627.483,1910.49
627.682,1911.39
627.88,1911.71
628.079,1912.76
628.278,1914.12
628.476,1914.99
628.675,1915.91
628.874,1916.99
629.072,1917.82
629.271,1918.88
629.47,1920.01
629.668,1921.11
629.867,1922.21
630.065,1923.02
630.264,1924.23
630.462,1925.23
630.661,1926.47
630.859,1927.8
631.058,1929.3
631.256,1930.82
631.455,1932.6
631.653,1934.09
631.852,1935.42
632.05,1936.38
632.249,1937.58
632.447,1939.04
632.645,1940.64
632.844,1941.9
633.042,1943.3
633.24,1944.53
633.439,1945.91
633.637,1947.21
633.835,1948.64
634.034,1950.04
634.232,1951.38
634.43,1952.95
634.628,1954.66
634.827,1956.17
635.025,1957.76
635.223,1959.38
635.421,1960.74
635.62,1962
635.818,1963.54
636.016,1964.91
636.214,1966.59
636.412,1967.67
636.61,1969.16
636.808,1970.66
637.006,1972.13
637.205,1973.75
637.403,1975.64
637.601,1976.78
637.799,1978.34
637.997,1980.06
638.195,1981.6
638.393,1982.85
638.591,1984.86
638.789,1986.55
638.987,1988.34
639.184,1990.08
639.382,1991.77
639.58,1993.33
639.778,1995.1
639.976,1996.54
640.174,1998.52
640.372,2000.92
640.57,2002.72
640.767,2004.44
640.965,2006.13
641.163,2007.77
641.361,2009.72
641.559,2011.8
641.756,2013.94
641.954,2015.52
642.152,2017.88
642.35,2019.94
642.547,2021.84
642.745,2023.73
642.943,2026.03
643.14,2027.97
643.338,2030.28
643.536,2032.49
643.733,2034.29
643.931,2036.08
644.128,2038.05
644.326,2039.81
644.524,2041.92
644.721,2043.52
644.919,2045.74
645.116,2047.71
645.314,2049.92
645.511,2051.55
645.709,2053.73
645.906,2056.02
646.104,2058.21
646.301,2060.63
646.498,2062.48
646.696,2064.53
646.893,2066.51
647.091,2068.26
647.288,2070.26
647.485,2072.43
647.683,2074.55
647.88,2076.8
648.077,2079.14
648.275,2081.14
648.472,2083.21
648.669,2085.29
648.867,2087.62
649.064,2089.67
649.261,2092.15
649.458,2094.16
649.655,2096.21
649.853,2098.2
650.05,2100.52
650.247,2102.86
650.444,2105.36
650.641,2107.26
650.838,2109.74
651.036,2111.84
651.233,2113.87
651.43,2115.79
651.627,2118.13
651.824,2120.01
652.021,2122.2
652.218,2124.32
652.415,2126.35
652.612,2127.96
652.809,2130.19
653.006,2131.97
653.203,2134.12
653.4,2136.07
653.597,2138.32
653.794,2140.38
653.991,2142.6
654.187,2144.62
654.384,2146.23
654.581,2148.26
654.778,2149.83
654.975,2151.7
655.172,2153.79
655.369,2155.5
655.565,2156.99
655.762,2158.71
655.959,2160.63
656.156,2162.12
656.352,2163.44
656.549,2165.18
656.746,2166.77
656.943,2168.26
657.139,2170.09
657.336,2171.85
657.533,2173.62
657.729,2175.1
657.926,2176.97
658.122,2179.11
658.319,2181.06
658.516,2182.64
658.712,2184.4
658.909,2186.1
659.105,2187.71
659.302,2189.2
659.498,2191.03
659.695,2192.3
659.891,2193.74
660.088,2195.09
660.284,2196.79
660.481,2198.18
660.677,2199.93
660.874,2201.29
661.07,2202.75
661.266,2204.19
661.463,2205.21
661.659,2206.5
661.856,2207.51
662.052,2208.83
662.248,2209.69
662.444,2210.77
662.641,2211.86
662.837,2212.95
663.033,2214.47
663.23,2215.3
663.426,2216.15
663.622,2217.31
663.818,2218.31
664.014,2219.33
664.211,2220.16
664.407,2221.04
664.603,2221.87
664.799,2222.67
664.995,2223.54
665.191,2224.25
665.387,2225.14
665.584,2225.58
665.78,2226.44
665.976,2226.87
666.172,2227.59
666.368,2228.21
666.564,2228.92
666.76,2229.73
666.956,2230.61
667.152,2230.96
667.348,2231.79
667.544,2232.59
667.74,2232.97
667.936,2232.97
668.131,2233.31
668.327,2233.42
668.523,2234.08
668.719,2234.54
668.915,2234.6
669.111,2234.86
669.307,2235.19
669.502,2235.54
669.698,2235.82
669.894,2235.82
670.09,2236.05
670.285,2235.86
670.481,2236.08
670.677,2235.76
670.873,2235.23
671.068,2234.28
671.264,2234.12
671.46,2233.8
671.655,2233.28
671.851,2233
672.047,2232.51
672.242,2231.7
672.438,2231.23
672.633,2230.67
672.829,2229.89
673.025,2229.2
673.22,2228.36
673.416,2227.37
673.611,2226.91
673.807,2226.03
674.002,2225.17
674.198,2224.31
674.393,2223.59
674.589,2222.42
674.784,2221.33
674.979,2220.47
675.175,2219.43
675.37,2218.16
675.566,2217.34
675.761,2216.07
675.956,2214.85
676.152,2213.6
676.347,2212.36
676.542,2211.2
676.738,2209.91
676.933,2208.07
677.128,2206.94
677.323,2205.71
677.519,2204.06
677.714,2202.88
677.909,2201.5
678.104,2200.03
678.299,2198.44
678.494,2196.69
678.69,2194.8
678.885,2193.02
679.08,2191.26
679.275,2189.71
679.47,2187.64
679.665,2185.64
679.86,2183.13
680.055,2181.01
680.25,2178.92
680.445,2177
680.64,2175.02
680.835,2172.49
681.03,2170.26
681.225,2168.08
681.42,2166.21
681.615,2163.54
681.81,2160.84
682.005,2158.55
682.2,2156.06
682.395,2153.25
682.59,2150.97
682.785,2148.24
682.979,2145.51
683.174,2142.98
683.369,2140.2
683.564,2137.37
683.759,2134.48
683.953,2131.79
684.148,2129.2
684.343,2126.07
684.538,2123.41
684.732,2120.16
684.927,2117.56
685.122,2114.77
685.316,2111.72
685.511,2108.42
685.706,2105.25
685.9,2102.55
686.095,2099.63
686.29,2096.25
686.484,2093.21
686.679,2089.9
686.873,2086.75
687.068,2083.41
687.262,2080.33
687.457,2076.78
687.651,2073.54
687.846,2070.15
688.04,2067.35
688.235,2063.71
688.429,2060.41
688.624,2056.67
688.818,2053.36
689.013,2049.92
689.207,2046.57
689.401,2043.1
689.596,2039.39
689.79,2035.91
689.984,2032.49
690.179,2028.79
690.373,2025.3
690.567,2021.67
690.762,2018.52
690.956,2014.92
691.15,2011.55
691.344,2007.7
691.538,2004.23
691.733,2000.68
691.927,1997.38
692.121,1993.6
692.315,1990.16
692.509,1986.72
692.703,1983.25
692.898,1979.57
693.092,1976.18
693.286,1972.47
693.48,1968.88
693.674,1965.53
693.868,1962.17
694.062,1958.96
694.256,1955.26
694.45,1951.68
694.644,1948.59
694.838,1945.22
695.032,1941.94
695.226,1938.42
695.42,1934.91
695.614,1931.81
695.808,1928.26
696.002,1924.89
696.195,1921.57
696.389,1917.89
696.583,1914.43
696.777,1911.17
696.971,1907.71
697.165,1904.36
697.358,1900.51
697.552,1896.9
697.746,1893.46
697.94,1890.06
698.133,1886.92
698.327,1883.38
698.521,1880.25
698.715,1876.42
698.908,1873.06
699.102,1870.04
699.296,1866.84
699.489,1863.44
699.683,1860.08
699.876,1856.78
700.07,1853.52
700.264,1850.43
700.457,1847.31
700.651,1844.35
700.844,1841.48
701.038,1838.41
701.231,1835.5
701.425,1832.51
701.618,1829.7
701.812,1826.61
702.005,1823.47
702.199,1820.42
702.392,1817.74
702.586,1815.21
702.779,1812.19
702.972,1809.46
703.166,1806.73
703.359,1804.17
703.552,1801.05
703.746,1798.15
703.939,1795.69
704.132,1792.82
704.326,1790.2
704.519,1787.47
704.712,1784.86
704.905,1782.15
705.099,1779.6
705.292,1776.92
705.485,1774.61
705.678,1771.71
705.871,1768.99
706.064,1766.43
706.258,1764.03
706.451,1761.32
706.644,1758.97
706.837,1756.84
707.03,1754.81
707.223,1752.55
707.416,1750.38
707.609,1747.61
707.802,1745.68
707.995,1743.4
708.188,1741.3
708.381,1738.99
708.574,1736.96
708.767,1734.56
708.96,1732.39
709.153,1730.49
709.346,1728.83
709.539,1726.45
709.732,1724.51
709.924,1722.7
710.117,1721.2
710.31,1719.03
710.503,1717.35
710.696,1716.07
710.889,1714.49
711.081,1712.96
711.274,1711.42
711.467,1710.06
711.66,1708.56
711.852,1707.06
712.045,1705.74
712.238,1704.32
712.43,1703.26
712.623,1701.48
712.816,1700.14
713.008,1699.02
713.201,1697.99
713.394,1696.65
713.586,1695.66
713.779,1694.76
713.971,1693.93
714.164,1693.04
714.356,1692.07
714.549,1691.1
714.741,1690.39
714.934,1689.77
715.126,1689.25
715.319,1688.53
715.511,1687.68
715.704,1686.85
715.896,1686.61
716.088,1685.97
716.281,1685.48
716.473,1685.29
716.666,1684.77
716.858,1684.28
717.05,1683.93
717.243,1683.75
717.435,1683.64
717.627,1683.56
717.819,1683.69
718.012,1683.78
718.204,1684.01
718.396,1684.54
718.588,1684.85
718.781,1685.14
718.973,1685.8
719.165,1686.08
719.357,1686.47
719.549,1686.57
719.741,1687.1
719.934,1687.53
720.126,1688.14
720.318,1688.84
720.51,1689.54
720.702,1690.59
720.894,1691.65
721.086,1693.08
721.278,1694.17
721.47,1695.39
721.662,1696.58
721.854,1698.37
722.046,1699.77
722.238,1701.15
722.43,1702.98
722.622,1704.85
722.814,1706.3
723.005,1708.05
723.197,1710.06
723.389,1711.7
723.581,1714.11
723.773,1715.94
723.965,1718.2
724.156,1720.43
724.348,1722.72
724.54,1724.81
724.732,1726.98
724.923,1729.31
725.115,1732.21
725.307,1734.99
725.499,1737.97
725.69,1740.76
725.882,1744
726.074,1746.85
726.265,1750.44
726.457,1753.46
726.648,1757.06
726.84,1760.08
727.032,1763.94
727.223,1767.44
727.415,1771.21
727.606,1775.19
727.798,1779.24
727.989,1783.08
728.181,1787.23
728.372,1791.81
728.564,1795.99
728.755,1800.52
728.947,1805
729.138,1809.56
729.329,1814.53
729.521,1819.44
729.712,1824.31
729.904,1829.45
730.095,1834.95
730.286,1840.34
730.478,1845.7
730.669,1851.39
730.86,1857.6
731.051,1863.36
731.243,1869.26
731.434,1875.48
731.625,1881.94
731.816,1888.04
732.008,1894.66
732.199,1901.48
732.39,1908.41
732.581,1914.95
732.772,1921.62
732.963,1928.88
733.154,1936.11
733.346,1943.25
733.537,1950.73
733.728,1957.95
733.919,1965.76
734.11,1973.89
734.301,1981.8
734.492,1989.95
734.683,1998.19
734.874,2006.65
735.065,2015.23
735.256,2023.93
735.447,2032.87
735.638,2042.38
735.829,2051.53
736.019,2060.92
736.21,2070.78
736.401,2080.55
736.592,2090.45
736.783,2100.29
736.974,2110.92
737.164,2120.85
737.355,2131.91
737.546,2142.51
737.737,2153.29
737.928,2163.72
738.118,2174.92
738.309,2186.47
738.5,2198.03
738.69,2209.45
738.881,2221.19
739.072,2232.89
739.262,2244.94
739.453,2256.81
739.644,2269.03
739.834,2281.16
740.025,2294.16
740.215,2307.1
740.406,2320.29
740.596,2333.19
740.787,2346.43
740.978,2359.72
741.168,2373.23
741.358,2387.01
741.549,2401.08
741.739,2414.61
741.93,2428.7
742.12,2442.85
742.311,2457.51
742.501,2471.82
742.691,2486.47
742.882,2501.55
743.072,2516.32
743.263,2531.27
743.453,2546.33
743.643,2561.61
743.833,2577.27
744.024,2592.49
744.214,2608.56
744.404,2623.88
744.594,2639.9
744.785,2655.98
744.975,2672.14
745.165,2688.56
745.355,2704.73
745.545,2721.04
745.736,2737.77
745.926,2754.23
746.116,2771.4
746.306,2788.21
746.496,2805.41
746.686,2822.72
746.876,2839.89
747.066,2856.99
747.256,2875.21
747.446,2892.56
747.636,2910.16
747.826,2927.64
748.016,2945.75
748.206,2963.81
748.396,2982.01
748.586,3000.06
748.776,3018.74
748.966,3036.97
749.156,3055.57
749.346,3073.9
749.535,3092.36
749.725,3111.11
749.915,3129.73
750.105,3148.33
750.295,3167.27
750.484,3185.8
750.674,3205.03
750.864,3223.82
751.054,3243.32
751.243,3262.11
751.433,3281.47
751.623,3300.24
751.812,3319.44
752.002,3338.73
752.192,3357.88
752.381,3376.9
752.571,3396.23
752.761,3415.78
752.95,3435.18
753.14,3454.17
753.329,3473.52
753.519,3492.77
753.708,3512.72
753.898,3532.12
754.087,3551.46
754.277,3570.76
754.466,3590.45
754.656,3609.91
754.845,3629.48
755.035,3648.74
755.224,3668.75
755.413,3688.45
755.603,3708.14
755.792,3727.32
755.982,3747.05
756.171,3766.18
756.36,3785.98
756.549,3804.96
756.739,3824.51
756.928,3844.26
757.117,3863.89
757.307,3883.35
757.496,3902.66
757.685,3922.09
757.874,3941.91
758.063,3961.31
758.253,3980.63
758.442,3999.53
758.631,4018.62
758.82,4037.9
759.009,4056.88
759.198,4075.9
759.387,4094.62
759.576,4113.71
759.765,4132.7
759.954,4151.47
760.143,4169.84
760.332,4188.05
760.521,4207.08
760.71,4225.18
760.899,4243.69
761.088,4262.23
761.277,4280.77
761.466,4298.57
761.655,4316.88
761.844,4334.69
762.033,4353.52
762.222,4371.09
762.411,4388.77
762.599,4406.49
762.788,4424.35
762.977,4441.78
763.166,4459.45
763.355,4476.81
763.543,4494.37
763.732,4512
763.921,4529.07
764.109,4545.84
764.298,4562.52
764.487,4579.06
764.675,4595.94
764.864,4612.13
765.053,4628.72
765.241,4644.68
765.43,4660.58
765.619,4676.41
765.807,4692.42
765.996,4707.58
766.184,4723.33
766.373,4738.93
766.561,4753.96
766.75,4769.18
766.938,4784.04
767.127,4799.11
767.315,4814.15
767.504,4828.58
767.692,4843.04
767.881,4857.32
768.069,4871.77
768.257,4885.45
768.446,4899.24
768.634,4913.18
768.822,4926.41
769.011,4939.49
769.199,4952.85
769.387,4965.95
769.576,4978.66
769.764,4990.85
769.952,5003.32
770.14,5015.51
770.328,5027.44
770.517,5039.46
770.705,5051.67
770.893,5063.43
771.081,5075.11
771.269,5086.22
771.457,5097.69
771.646,5108.63
771.834,5120.12
772.022,5130.7
772.21,5140.76
772.398,5150.9
772.586,5160.96
772.774,5170.94
772.962,5180.64
773.15,5190.14
773.338,5199.41
773.526,5208.17
773.714,5217.1
773.902,5226.12
774.09,5235.2
774.278,5243.19
774.465,5251.36
774.653,5259.21
774.841,5267.12
775.029,5274.07
775.217,5281.67
775.405,5288.06
775.592,5295.3
775.78,5301.86
775.968,5308.95
776.156,5314.69
776.343,5320.49
776.531,5325.97
776.719,5331.72
776.907,5336.87
777.094,5341.99
777.282,5346.55
777.47,5351.46
777.657,5356.03
777.845,5360.63
778.032,5364.64
778.22,5368.36
778.408,5371.54
778.595,5375.02
778.783,5378.23
778.97,5381.22
779.158,5383.49
779.345,5386.02
779.533,5388.33
779.72,5390.56
779.908,5392.16
780.095,5393.89
780.282,5395.29
780.47,5396.46
780.657,5397.43
780.845,5397.97
781.032,5398.54
781.219,5399.33
781.407,5399.63
781.594,5399.81
781.781,5399.41
781.969,5399.26
782.156,5398.37
782.343,5398.04
782.53,5397.3
782.718,5396.54
782.905,5395.51
783.092,5393.95
783.279,5392.51
783.466,5391.03
783.653,5389.17
783.841,5387.87
784.028,5385.36
784.215,5383.15
784.402,5380.77
784.589,5377.89
784.776,5375.27
784.963,5372.79
785.15,5369.23
785.337,5366.61
785.524,5363.06
785.711,5359.87
785.898,5356.57
786.085,5352.98
786.272,5349
786.459,5345.29
786.646,5341.13
786.833,5337.2
787.02,5332.75
787.206,5328.76
787.393,5324.41
787.58,5319.87
787.767,5315.22
787.954,5310.58
788.14,5305.82
788.327,5301.5
788.514,5296.28
788.701,5291.17
788.887,5285.5
789.074,5280.93
789.261,5275.46
789.448,5270.35
789.634,5265.25
789.821,5259.77
790.008,5254.44
790.194,5249.2
790.381,5244.07
790.567,5238.51
790.754,5233.12
790.94,5228.11
791.127,5222.5
791.314,5217.16
791.5,5210.67
791.687,5205.31
791.873,5199.84
792.059,5194.45
792.246,5188.75
792.432,5182.83
792.619,5176.84
792.805,5171.57
792.992,5164.99
793.178,5158.68
793.364,5152.79
793.551,5147.31
793.737,5141.12
793.923,5135.36
794.11,5129.37
794.296,5124.02
794.482,5117.73
794.668,5111.44
794.855,5105.18
795.041,5099.14
795.227,5093.13
795.413,5087.01
795.599,5080.97
795.786,5074.75
795.972,5068.38
796.158,5062.64
796.344,5056.43
796.53,5050.9
796.716,5044.39
796.902,5038.38
797.088,5032.26
797.274,5025.99
797.46,5019.79
797.646,5013.82
797.832,5007.93
798.018,5002.49
798.204,4996.24
798.39,4990.44
798.576,4984.17
798.762,4978.42
798.948,4972.3
799.134,4967.19
799.32,4961.13
799.506,4955.53
799.692,4949.26
799.877,4943.81
800.063,4938.23
800.249,4932.91
800.435,4927.08
800.621,4921.5
800.806,4916.01
800.992,4910.01
801.178,4903.92
801.363,4897.59
801.549,4892.08
801.735,4886.72
801.92,4881.36
802.106,4876.12
802.292,4870.39
802.477,4865.11
802.663,4859.36
802.849,4853.95
803.034,4848.99
803.22,4843.91
803.405,4838.26
803.591,4833.95
803.776,4828.55
803.962,4823.42
804.147,4818.31
804.333,4813.12
804.518,4808.24
804.703,4803.14
804.889,4797.79
805.074,4793.13
805.26,4787.83
805.445,4782.96
805.63,4777.46
805.816,4773.36
806.001,4768.23
806.186,4763.49
806.372,4758.81
806.557,4754.05
806.742,4749.06
806.927,4744.48
807.113,4739.92
807.298,4735.6
807.483,4730.84
807.668,4726.23
807.853,4721.75
808.039,4717.17
808.224,4712.23
808.409,4707.78
808.594,4702.83
808.779,4698.45
808.964,4693.37
809.149,4688.67
809.334,4683.52
809.519,4679.15
809.704,4674.8
809.889,4670.46
810.074,4666.17
810.259,4662.04
810.444,4657.45
810.629,4653.05
810.814,4648.56
810.999,4644.62
811.184,4639.87
811.369,4635.4
811.554,4630.6
811.738,4626.59
811.923,4621.98
812.108,4617.4
812.293,4612.76
812.478,4609.15
812.662,4604.65
812.847,4600.78
813.032,4596.4
813.217,4592.21
813.401,4587.64
813.586,4584.16
813.771,4580.1
813.955,4576
814.14,4571.86
814.325,4568
814.509,4563.85
814.694,4560.21
814.878,4556.36
815.063,4552.53
815.248,4548.28
815.432,4544.17
815.617,4540.28
815.801,4537.02
815.986,4533.36
816.17,4529.54
816.355,4525.79
816.539,4522.39
816.723,4518.74
816.908,4514.81
817.092,4511.36
817.277,4507.76
817.461,4504.56
817.645,4500.95
817.83,4497.45
818.014,4494.36
818.198,4490.91
818.383,4487.81
818.567,4484.19
818.751,4480.88
818.935,4477.33
819.12,4474.34
819.304,4470.79
819.488,4467.88
819.672,4464.49
819.856,4460.9
820.041,4457.33
820.225,4453.91
820.409,4450.52
820.593,4447.34
820.777,4444.1
820.961,4440.98
821.145,4437.29
821.329,4434.36
821.513,4431.03
821.697,4427.69
821.881,4424.36
822.065,4421.16
822.249,4417.6
822.433,4414.38
822.617,4410.93
822.801,4407.81
822.985,4404.45
823.169,4401.04
823.353,4397.5
823.536,4394.55
823.72,4391.06
823.904,4387.59
824.088,4384.1
824.272,4380.56
824.456,4376.94
824.639,4373.65
824.823,4369.95
825.007,4366.29
825.19,4362.65
825.374,4359.32
825.558,4355.56
825.742,4352.07
825.925,4348.37
826.109,4345.1
826.292,4340.71
826.476,4336.91
826.66,4332.99
826.843,4329.14
827.027,4325.18
827.21,4321.51
827.394,4317.3
827.577,4312.89
827.761,4308.73
827.944,4304.36
828.128,4299.96
828.311,4295.62
828.495,4290.84
828.678,4286.63
828.862,4281.87
829.045,4277.55
829.228,4272.74
829.412,4267.98
829.595,4263.48
829.778,4259.23
829.962,4254.37
830.145,4249.96
830.328,4245.55
830.512,4240.45
830.695,4235.15
830.878,4230.4
831.061,4225.36
831.244,4220.2
831.428,4214.66
831.611,4209.76
831.794,4204.64
831.977,4199.82
832.16,4194.68
832.343,4189.69
832.526,4184.75
832.709,4179.55
832.893,4174.61
833.076,4169.82
833.259,4164.64
833.442,4159.73
833.625,4153.96
833.808,4149.24
833.991,4143.82
834.174,4138.9
834.356,4133.88
834.539,4128.47
834.722,4123.45
834.905,4117.96
835.088,4112.36
835.271,4107.07
835.454,4101.92
835.637,4096.69
835.819,4091.19
836.002,4085.69
836.185,4079.72
836.368,4074.76
836.551,4069.16
836.733,4063.28
836.916,4057.38
837.099,4051.52
837.281,4045.51
837.464,4040.14
837.647,4034.32
837.829,4028.41
838.012,4022.68
838.195,4016.95
838.377,4011.15
838.56,4005.25
838.742,3998.83
838.925,3993.08
839.107,3986.54
839.29,3980.64
839.472,3974.41
839.655,3968.76
839.837,3962.66
840.02,3956.46
840.202,3950.21
840.385,3944.23
840.567,3937.5
840.749,3931.71
840.932,3925.51
841.114,3919.25
841.297,3912.92
841.479,3906.65
841.661,3900.19
841.843,3893.92
842.026,3887.42
842.208,3881.38
842.39,3875.09
842.572,3869.14
842.755,3862.37
842.937,3856.23
843.119,3849.58
843.301,3842.98
843.483,3836.54
843.666,3830.46
843.848,3823.92
844.03,3817.18
844.212,3810.74
844.394,3804.43
844.576,3797.76
844.758,3791.04
844.94,3784.35
845.122,3778.3
845.304,3771.98
845.486,3765.95
845.668,3759.59
845.85,3753.36
846.032,3746.97
846.214,3740.97
846.396,3734.19
846.578,3727.74
846.759,3721.05
846.941,3714.26
847.123,3707.5
847.305,3701.16
847.487,3694.85
847.669,3688.51
847.85,3681.8
848.032,3675.51
848.214,3668.79
848.396,3662.39
848.577,3655.55
848.759,3649.41
848.941,3643.1
849.122,3636.84
849.304,3629.98
849.486,3623.85
849.667,3617.65
849.849,3611.31
850.03,3605.14
850.212,3599.1
850.394,3592.28
850.575,3585.68
850.757,3579.51
850.938,3573.37
851.12,3567.01
851.301,3561.14
851.483,3554.74
851.664,3548.39
851.845,3541.91
852.027,3535.81
852.208,3529.63
852.39,3523.41
852.571,3517.08
852.752,3510.86
852.934,3505.07
853.115,3499.05
853.296,3493.01
853.478,3487.38
853.659,3481.28
853.84,3475.25
854.021,3469.38
854.203,3463.13
854.384,3457.33
854.565,3451.49
854.746,3445.26
854.927,3439.48
855.108,3433.58
855.29,3428.03
855.471,3421.88
855.652,3416.45
855.833,3410.55
856.014,3405.12
856.195,3399.15
856.376,3393.83
856.557,3388.42
856.738,3383.03
856.919,3377.51
857.1,3372.14
857.281,3366.25
857.462,3360.78
857.643,3354.85
857.824,3349.5
858.005,3344.03
858.185,3338.7
858.366,3333.53
858.547,3328.44
858.728,3323.15
858.909,3317.99
859.09,3312.77
859.27,3307.71
859.451,3302.66
859.632,3297.55
859.813,3292.27
859.993,3287.26
860.174,3282.48
860.355,3277.3
860.535,3272.14
860.716,3266.88
860.897,3261.85
861.077,3256.9
861.258,3251.72
861.438,3246.97
861.619,3242.16
861.8,3237.53
861.98,3232.25
862.161,3227.32
862.341,3222.74
862.522,3218.24
862.702,3213.16
862.883,3209.16
863.063,3204.52
863.243,3200.14
863.424,3195.44
863.604,3190.78
863.785,3185.66
863.965,3181.46
864.145,3177.03
864.326,3172.63
864.506,3168.13
864.686,3163.94
864.867,3159.67
865.047,3155.42
865.227,3151.24
865.407,3147.27
865.588,3142.94
865.768,3138.6
865.948,3134.02
866.128,3129.83
866.308,3125.15
866.488,3121.38
866.669,3117.33
866.849,3113.07
867.029,3109.18
867.209,3105.16
867.389,3100.97
867.569,3097.05
867.749,3092.63
867.929,3088.9
868.109,3084.74
868.289,3080.94
868.469,3076.54
868.649,3072.47
868.829,3068.15
869.009,3064.11
869.189,3059.72
869.369,3055.55
869.548,3051.13
869.728,3047.09
869.908,3042.78
870.088,3038.53
870.268,3034.42
870.448,3030.52
870.627,3026.06
870.807,3022.05
870.987,3017.93
871.167,3013.65
871.346,3009.46
871.526,3005.18
871.706,3000.96
871.885,2996.88
872.065,2992.68
872.245,2988.4
872.424,2984.19
872.604,2980.4
872.783,2975.75
872.963,2971.63
873.142,2967.55
873.322,2963.87
873.501,2959.77
873.681,2955.67
873.86,2951.18
874.04,2947.29
874.219,2943.22
874.399,2939.38
874.578,2935.28
874.758,2931.38
874.937,2927.3
875.116,2923.9
875.296,2919.48
875.475,2915.87
875.654,2911.86
875.834,2908.01
876.013,2903.67
876.192,2899.91
876.372,2895.95
876.551,2892.08
876.73,2888.27
876.909,2884.66
877.088,2880.54
877.268,2876.83
877.447,2872.6
877.626,2868.98
877.805,2864.76
877.984,2861.07
878.163,2857.36
878.342,2853.47
878.521,2849.62
878.7,2845.55
878.879,2841.58
879.059,2837.73
879.238,2833.75
879.417,2829.72
879.595,2825.97
879.774,2822.09
879.953,2817.93
880.132,2813.98
880.311,2809.98
880.49,2806.1
880.669,2801.9
880.848,2798.15
881.027,2794.3
881.205,2790.52
881.384,2786.14
881.563,2782.06
881.742,2777.87
881.921,2773.81
882.099,2770.06
882.278,2766.23
882.457,2761.99
882.635,2758.25
882.814,2754.28
882.993,2750.53
883.171,2746.6
883.35,2742.44
883.529,2738.42
883.707,2734.55
883.886,2730.82
884.064,2726.87
884.243,2722.75
884.422,2718.74
884.6,2714.59
884.779,2710.95
884.957,2706.54
885.136,2702.56
885.314,2698.26
885.492,2694.4
885.671,2690.31
885.849,2685.98
886.028,2681.77
886.206,2677.26
886.384,2672.84
886.563,2668.74
886.741,2664.84
886.919,2660.56
887.098,2656.27
887.276,2651.9
887.454,2647.52
887.632,2643.24
887.811,2638.69
887.989,2634.3
888.167,2629.91
888.345,2625.83
888.523,2621.44
888.702,2617.04
888.88,2612.65
889.058,2607.94
889.236,2603.41
889.414,2598.93
889.592,2594.08
889.77,2589.53
889.948,2584.97
890.126,2580.46
890.304,2575.89
890.482,2571.27
890.66,2566.48
890.838,2561.84
891.016,2556.97
891.194,2552.25
891.372,2547.22
891.55,2542.73
891.728,2537.55
891.905,2532.86
892.083,2527.73
892.261,2522.99
892.439,2518.12
892.617,2512.98
892.794,2507.8
892.972,2502.75
893.15,2497.74
893.328,2493.15
893.505,2487.77
893.683,2483
893.861,2477.83
894.038,2472.77
894.216,2467.75
894.394,2462.48
894.571,2457.1
894.749,2452.06
894.926,2446.66
895.104,2441.48
895.281,2435.97
895.459,2430.43
895.637,2425.08
895.814,2419.66
895.992,2414.41
896.169,2408.39
896.346,2402.86
896.524,2397.59
896.701,2392.19
896.879,2386.75
897.056,2380.99
897.233,2375.42
897.411,2369.9
897.588,2364.27
897.765,2358.31
897.943,2352.65
898.12,2347.01
898.297,2341.24
898.475,2335.19
898.652,2329.9
898.829,2323.84
899.006,2317.96
899.183,2311.71
899.361,2305.84
899.538,2300.04
899.715,2294.37
899.892,2288.54
900.069,2282.71
900.246,2276.67
900.423,2270.81
900.6,2264.36
900.777,2258.57
900.954,2252.55
901.131,2246.59
901.308,2240.21
901.485,2234.15
901.662,2228.09
901.839,2222.29
902.016,2216.03
902.193,2209.98
902.37,2203.48
902.547,2197.27
902.724,2191.21
902.9,2184.9
903.077,2178.69
903.254,2172.68
903.431,2166.5
903.608,2160.65
903.784,2154.24
903.961,2148.1
904.138,2141.45
904.315,2135.54
904.491,2129.04
904.668,2123.06
904.845,2116.62
905.021,2110.41
905.198,2104.33
905.375,2098.1
905.551,2091.88
905.728,2085.66
905.904,2079.44
906.081,2073.22
906.257,2066.63
906.434,2060.48
906.61,2053.77
906.787,2047.49
906.963,2041.11
907.14,2034.92
907.316,2028.51
907.493,2022.16
907.669,2015.58
907.845,2009.36
908.022,2003.35
908.198,1997.07
908.374,1990.55
908.551,1984.28
908.727,1978.23
908.903,1972.05
909.08,1965.6
909.256,1959.41
909.432,1953.42
909.608,1947.32
909.785,1941.01
909.961,1934.67
910.137,1928.4
910.313,1922.43
910.489,1916.28
910.665,1910.14
910.841,1903.58
911.018,1897.79
911.194,1891.28
911.37,1885.22
911.546,1878.93
911.722,1872.87
911.898,1866.7
912.074,1860.58
912.25,1854.22
912.426,1847.94
912.602,1841.72
912.777,1835.56
912.953,1829.46
913.129,1823.86
913.305,1817.7
913.481,1811.74
913.657,1805.68
913.833,1799.6
914.008,1793.69
914.184,1787.48
914.36,1781.73
914.536,1775.78
914.712,1769.6
914.887,1763.87
915.063,1757.96
915.239,1752.41
915.414,1746.52
915.59,1740.76
915.766,1735.02
915.941,1729.61
916.117,1723.74
916.292,1718.36
916.468,1712.78
916.644,1707.19
916.819,1701.37
916.995,1696.19
917.17,1690.41
917.346,1685.01
917.521,1679.44
917.697,1673.62
917.872,1667.97
918.048,1662.47
918.223,1656.74
918.398,1651.6
918.574,1646
918.749,1640.83
918.924,1635.43
919.1,1629.91
919.275,1624.29
919.45,1618.68
919.626,1613.42
919.801,1607.97
919.976,1602.63
920.151,1597.49
920.327,1591.94
920.502,1586.74
920.677,1581.41
920.852,1576.26
921.027,1570.67
921.202,1565.41
921.378,1560.15
921.553,1554.89
921.728,1549.96
921.903,1544.92
922.078,1539.72
922.253,1534.4
922.428,1529.47
922.603,1524.61
922.778,1519.7
922.953,1514.85
923.128,1509.83
923.303,1505.01
923.478,1500.52
923.652,1495.91
923.827,1490.77
924.002,1485.79
924.177,1480.71
924.352,1475.75
924.527,1470.86
924.702,1466.11
924.876,1461.05
925.051,1456.23
925.226,1451.51
925.401,1446.53
925.575,1441.78
925.75,1437.38
925.925,1432.59
926.099,1427.86
926.274,1423.18
926.449,1418.73
926.623,1414.17
926.798,1409.49
926.972,1405.03
927.147,1400.68
927.322,1395.9
927.496,1391.56
927.671,1387.09
927.845,1382.51
928.02,1377.88
928.194,1373.64
928.368,1369.11
928.543,1364.43
928.717,1359.72
928.892,1355.41
929.066,1350.8
929.24,1346.34
929.415,1341.75
929.589,1337.37
929.763,1332.92
929.938,1328.63
930.112,1324.25
930.286,1319.98
930.461,1315.73
930.635,1311.43
930.809,1307.18
930.983,1302.86
931.157,1298.55
931.332,1294.36
931.506,1290.44
931.68,1286.37
931.854,1282.28
932.028,1278.15
932.202,1274
932.376,1270.21
932.55,1266.16
932.724,1261.78
932.898,1257.74
933.072,1253.88
933.246,1250.26
933.42,1246.15
933.594,1241.97
933.768,1238.11
933.942,1233.86
934.116,1229.93
934.29,1225.98
934.464,1222.41
934.638,1218.56
934.811,1214.69
934.985,1210.73
935.159,1206.65
935.333,1202.71
935.507,1198.92
935.68,1194.9
935.854,1191.21
936.028,1187.29
936.201,1183.79
936.375,1180.3
936.549,1176.73
936.722,1173.17
936.896,1169.57
937.07,1165.82
937.243,1162.61
937.417,1159.19
937.59,1155.59
937.764,1151.95
937.938,1148.45
938.111,1144.88
938.285,1141.66
938.458,1137.93
938.631,1134.6
938.805,1131.08
938.978,1127.78
939.152,1124.31
939.325,1121.31
939.499,1117.92
939.672,1114.51
939.845,1111.17
940.019,1107.81
940.192,1104.59
940.365,1101.01
940.538,1097.86
940.712,1094.58
940.885,1091.41
941.058,1088.5
941.231,1085.38
941.405,1082.35
941.578,1078.99
941.751,1075.94
941.924,1072.8
942.097,1069.51
942.27,1066.38
942.443,1063.62
942.617,1060.6
942.79,1057.82
942.963,1054.7
943.136,1051.5
943.309,1048.44
943.482,1045.4
943.655,1042.53
943.828,1039.33
944.001,1036.24
944.173,1033.24
944.346,1030.3
944.519,1027.07
944.692,1024.14
944.865,1021.11
945.038,1018.42
945.211,1015.48
945.383,1012.39
945.556,1009.5
945.729,1006.62
945.902,1003.88
946.075,1000.88
946.247,998.181
946.42,995.356
946.593,992.661
946.765,989.752
946.938,986.852
947.111,984.211
947.283,981.609
947.456,978.604
947.628,975.628
947.801,973.283
947.974,970.196
948.146,967.216
948.319,964.303
948.491,961.958
948.664,959.151
948.836,956.361
949.009,953.78
949.181,951.128
949.353,948.344
949.526,945.531
949.698,942.943
949.871,940.232
950.043,937.58
950.215,934.753
950.388,931.973
950.56,929.527
950.732,926.767
950.904,924.001
951.077,921.584
951.249,918.898
951.421,916.294
951.593,913.793
951.766,911.353
951.938,908.817
952.11,906.214
952.282,903.597
952.454,901.068
952.626,898.835
952.798,896.528
952.97,893.923
953.142,891.563
953.314,888.698
953.487,886.204
953.659,883.678
953.83,881.22
954.002,878.697
954.174,876.275
954.346,873.68
954.518,871.106
954.69,868.77
954.862,866.504
955.034,864.161
955.206,861.901
955.378,859.612
955.549,857.246
955.721,854.575
955.893,852.226
956.065,849.722
956.236,847.663
956.408,845.492
956.58,842.983
956.752,840.451
956.923,838.338
957.095,835.996
957.267,833.577
957.438,830.94
957.61,828.504
957.781,825.978
957.953,823.677
958.125,821.365
958.296,818.86
958.468,816.491
958.639,814.223
958.811,812.18
958.982,810.304
959.154,808.081
959.325,805.75
959.496,803.407
959.668,801.244
959.839,799.038
960.011,796.895
960.182,794.916
960.353,792.621
960.525,790.081
960.696,787.714
960.867,785.746
961.038,783.674
961.21,781.652
961.381,779.337
961.552,777.341
961.723,775.04
961.895,772.68
962.066,770.386
962.237,768.38
962.408,766.186
962.579,764.039
962.75,762.025
962.921,759.996
963.092,758.13
963.263,756.027
963.434,753.92
963.605,751.687
963.776,749.552
963.947,747.504
964.118,745.401
964.289,743.077
964.46,741.025
964.631,738.856
964.802,736.685
964.973,734.719
965.144,732.529
965.315,730.447
965.485,728.182
965.656,726.153
965.827,724.19
965.998,721.825
966.169,719.501
966.339,717.748
966.51,715.654
966.681,713.872
966.851,712.008
967.022,709.694
967.193,707.61
967.363,705.995
967.534,703.729
967.705,701.86
967.875,699.652
968.046,697.743
968.216,695.74
968.387,694.057
968.557,691.899
968.728,690.024
968.898,688.285
969.069,686.23
969.239,684.311
969.41,682.499
969.58,680.637
969.751,678.675
969.921,677.085
970.091,675.235
970.262,673.638
970.432,671.954
970.602,670.238
970.773,668.23
970.943,666.19
971.113,664.563
971.283,662.462
971.454,660.458
971.624,658.975
971.794,656.89
971.964,655.128
972.134,653.056
972.305,651.337
972.475,649.502
972.645,647.709
972.815,645.829
972.985,644.278
973.155,642.174
973.325,640.544
973.495,638.637
973.665,636.875
973.835,634.789
974.005,632.842
974.175,631.25
974.345,629.185
974.515,627.402
974.685,625.489
974.855,623.796
975.024,622.131
975.194,619.911
975.364,617.806
975.534,615.752
975.704,613.665
975.874,611.731
976.043,609.988
976.213,608.142
976.383,606.305
976.553,604.594
976.722,603.164
976.892,601.228
977.062,599.522
977.231,597.319
977.401,595.748
977.57,593.872
977.74,592.113
977.91,590.099
978.079,588.401
978.249,586.512
978.418,584.779
978.588,583.018
978.757,581.338
978.927,579.737
979.096,577.879
979.266,576.296
979.435,574.485
979.604,573.004
979.774,571.483
979.943,569.689
980.113,567.881
980.282,566.012
980.451,564.108
980.621,562.499
980.79,560.697
980.959,558.959
981.128,557.34
981.298,555.625
981.467,553.766
981.636,551.975
981.805,550.512
981.974,549.053
982.143,546.95
982.313,545.175
982.482,543.453
982.651,541.859
982.82,539.976
982.989,538.389
983.158,536.721
983.327,535.016
983.496,533.481
983.665,531.71
983.834,530.068
984.003,528.559
984.172,526.826
984.341,525.319
984.51,523.599
984.679,521.984
984.847,520.14
985.016,518.493
985.185,516.74
985.354,514.889
985.523,513.299
985.692,511.77
985.86,510.164
986.029,508.564
986.198,506.809
986.366,505.278
986.535,503.511
986.704,501.939
986.873,500.238
987.041,498.573
987.21,497.028
987.378,495.488
987.547,494.169
987.716,492.521
987.884,490.528
988.053,489.106
988.221,487.624
988.39,486.283
988.558,484.67
988.727,482.909
988.895,481.243
989.064,479.485
989.232,477.735
989.4,476.166
989.569,474.599
989.737,473.161
989.905,471.805
990.074,470.372
990.242,468.859
990.41,467.028
990.579,465.329
990.747,463.78
990.915,462.318
991.083,460.607
991.252,459.08
991.42,457.63
991.588,456.273
991.756,455.039
991.924,453.646
992.092,452.086
992.261,450.779
992.429,449.312
992.597,447.896
992.765,446.403
992.933,444.807
993.101,442.92
993.269,441.492
993.437,439.995
993.605,438.57
993.773,437.242
993.941,435.473
994.109,434.075
994.277,432.571
994.444,431.077
994.612,429.574
994.78,428.276
994.948,426.706
995.116,425.21
995.284,423.387
995.451,421.96
995.619,420.565
995.787,419.053
995.955,417.725
996.122,416.514
996.29,415.203
996.458,413.843
996.625,412.466
996.793,411.071
996.961,409.575
997.128,407.908
997.296,406.517
997.463,405.106
997.631,403.827
997.798,402.637
997.966,401.411
998.133,400.17
998.301,399.147
998.468,397.958
998.636,396.763
998.803,395.25
998.971,393.965
999.138,392.578
999.305,391.42
999.473,390.503
999.64,389.363
999.807,388.113
999.975,387
1000.14,385.752
1000.31,384.262
1000.48,383.23
1000.64,381.726
1000.81,380.21
1000.98,379.123
1001.15,377.989
1001.31,376.354
1001.48,375.233
1001.65,373.681
1001.81,372.209
1001.98,371.059
1002.15,370.021
1002.32,368.844
1002.48,367.848
1002.65,366.514
1002.82,365.171
1002.98,363.872
1003.15,362.641
1003.32,361.282
1003.48,359.986
1003.65,358.913
1003.82,357.303
1003.98,356.107
1004.15,354.673
1004.32,353.338
1004.49,351.8
1004.65,350.685
1004.82,349.362
1004.99,347.954
1005.15,347.14
1005.32,345.876
1005.49,344.339
1005.65,343.204
1005.82,341.605
1005.99,340.536
1006.15,339.222
1006.32,337.706
1006.49,336.584
1006.65,335.294
1006.82,333.844
1006.99,332.499
1007.15,331.305
1007.32,329.992
1007.49,328.553
1007.65,327.5
1007.82,326.241
1007.98,325.344
1008.15,324.279
1008.32,323.155
1008.48,322.11
1008.65,321.035
1008.82,320.113
1008.98,319.14
1009.15,318.282
1009.32,317.222
1009.48,315.976
1009.65,315.043
1009.81,314.034
1009.98,312.983
1010.15,311.822
1010.31,310.612
1010.48,309.188
1010.65,308.24
1010.81,307.07
1010.98,306.187
1011.14,304.897
1011.31,303.866
1011.48,302.777
1011.64,301.723
1011.81,300.402
1011.97,299.402
1012.14,298.32
1012.31,297.028
1012.47,295.795
1012.64,294.472
1012.8,293.268
1012.97,292.104
1013.14,290.763
1013.3,289.896
1013.47,288.643
1013.63,287.654
1013.8,286.54
1013.97,285.473
1014.13,284.728
1014.3,283.388
1014.46,282.061
1014.63,280.758
1014.79,279.87
1014.96,278.945
1015.13,278.075
1015.29,277.02
1015.46,275.747
1015.62,274.627
1015.79,273.486
1015.95,272.624
1016.12,271.71
1016.29,270.645
1016.45,269.664
1016.62,268.408
1016.78,267.372
1016.95,266.289
1017.11,265.303
1017.28,264.357
1017.44,263.472
1017.61,262.596
1017.78,261.606
1017.94,260.437
1018.11,259.679
1018.27,258.688
1018.44,257.694
1018.6,256.729
1018.77,255.651
1018.93,254.705
1019.1,253.439
1019.26,252.09
1019.43,251.028
1019.59,250.028
1019.76,248.947
1019.92,247.884
1020.09,247.117
1020.25,246.15
1020.42,245.12
1020.59,244.008
1020.75,242.798
1020.92,241.937
1021.08,240.796
1021.25,240.126
1021.41,239.72
1021.58,238.92
1021.74,238.096
1021.91,236.925
1022.07,236.058
1022.24,235.086
1022.4,234.369
1022.57,233.35
1022.73,232.455
1022.89,231.323
1023.06,230.527
1023.22,229.479
1023.39,228.613
1023.55,227.767
1023.72,226.969
1023.88,226.2
1024.05,225.395
1024.21,224.637
1024.38,223.757
1024.54,223.04
1024.71,222.271
1024.87,221.221
1025.04,220.207
1025.2,219.139
1025.37,218.384
1025.53,217.766
1025.7,216.83
1025.86,215.776
1026.02,214.672
1026.19,213.775
1026.35,213.112
1026.52,212.442
1026.68,211.67
1026.85,210.819
1027.01,210.244
1027.18,209.401
1027.34,208.931
1027.5,208.07
1027.67,198.199
1027.83,215.689
1028,195.004
1028.16,179.603
1028.33,181.365
1028.49,203.237
1028.65,198.609
1028.82,168.79
1028.98,184.232
1029.15,161.704
1029.31,167.725
1029.48,183.699
1029.64,164.408
1029.8,259.597
1029.97,191.686
1030.13,226.379
1030.3,162.646
1030.46,167.152
1030.62,213.149
1030.79,155.028
1030.95,129.428
1031.12,127.544
1031.28,201.844
1031.44,202.09
1031.61,212.699
1031.77,166.988
1031.94,153.594
1032.1,185.051
1032.26,158.591
1032.43,178.416
1032.59,183.085
1032.76,171.616
1032.92,208.685
1033.08,153.226
1033.25,165.104
1033.41,183.331
1033.57,190.744
1033.74,153.758
1033.9,180.709
1034.07,223.84
1034.23,189.884
1034.39,127.094
1034.56,225.027
1034.72,153.389
1034.88,174.402
1035.05,165.227
1035.21,142.412
1035.37,169.282
1035.54,131.353
1035.7,117.304
1035.86,171.534
1036.03,173.705
1036.19,154.454
1036.35,131.394
1036.52,182.716
1036.68,173.828
1036.84,165.063
1037.01,141.675
1037.17,119.598
1037.33,168.544
1037.5,151.464
1037.66,173.869
1037.82,207.333
1037.99,196.806
1038.15,178.375
1038.31,147.246
1038.48,139.258
1038.64,114.724
1038.8,172.804
1038.97,109.399
1039.13,153.758
1039.29,116.28
1039.46,169.896
1039.62,142.085
1039.78,144.092
1039.95,162.319
1040.11,151.546
1040.27,153.594
1040.43,155.233
1040.6,145.239
1040.76,132.951
1040.92,152.488
1041.09,147.041
1041.25,132.746
1041.41,137.006
1041.57,143.068
1041.74,175.876
1041.9,164.489
1042.06,140.446
1042.23,119.68
1042.39,126.561
1042.55,139.422
1042.71,178.989
1042.88,148.147
1043.04,149.867
1043.2,116.608
1043.36,194.062
1043.53,149.171
1043.69,160.844
EndSpectrumFile,RAW DATA
SpectrumFile,DIFF DATA
Version,1.000000
Location,home
Customer,rudolf
SampleInfo,
GPSData,51.118491,-114.185425,1143.658447,1107,71211
SystemTime,2011,12,7,0,12,21,31
Pipe km,0.000000
Pre-Dilution Factor,1.000000
Freeform Info,
Concentration,923.933744
CalibrationName,USB4000 dark
Unique Calibration File ID,20110323-0226570968-TESTBOX2-7E963C-00008931
CalibrationWavelength,700.000000
CalibrationType,2,0.000000,0.616679
CalibrationRSquared,1.000000
CalibrationConcentrations [ppm],2,0.000000,10.000000
CalibrationCounts,2,0.000000,16.215900
CalibrationWarnLow,0.000000
CalibrationWarnHigh,10.000000
CalibrationErrorLow,0.000000
CalibrationErrorHigh,0.000000
Spectrometer Name,USB4000
Spectrometer Serial,USB4H02759
IntegrationTime [ms],50.000000
AveragedSpectra,50
BoxcarWidth,100
WavelengthRange [nm],346.775360,1043.690197
IntensityRange [counts],-22.428671,4273.620033
WavelengthCount,3648
Wavelength [nm],Intensity [counts]
346.775,-11.2468
346.991,-11.2468
347.206,-11.2468
347.421,-9.11687
347.637,-7.84713
347.852,-6.57739
348.067,0.631457
348.282,-20.2988
348.498,-13.8272
348.713,-0.105812
348.928,0.0580258
349.143,-11.001
349.358,-4.11983
349.574,-9.52647
349.789,1.98312
350.004,-12.025
350.219,-1.58035
350.434,-7.97001
350.649,8.0451
350.864,-4.03791
351.079,-2.11282
351.295,-13.1309
351.51,-0.392527
351.725,-10.0589
351.94,-10.3047
352.155,2.63847
352.37,-22.4287
352.585,-3.01393
352.8,-14.2368
353.015,-1.62131
353.23,18.7765
353.445,10.4617
353.66,8.61854
353.875,8.49566
354.09,-8.13385
354.305,-1.62131
354.52,-12.8032
354.735,-9.48551
354.949,-7.31466
355.164,-5.22573
355.379,23.1591
355.594,-0.351568
355.809,4.80931
356.024,6.07905
356.239,-9.40359
356.453,6.44769
356.668,-6.24972
356.883,-14.6464
357.098,-1.17076
357.313,2.06504
357.527,11.4857
357.742,8.16798
357.957,-5.92204
358.172,-3.25968
358.386,3.08902
358.601,-13.0899
358.816,-3.01393
359.03,-15.2198
359.245,-12.2298
359.46,-16.9401
359.674,-11.8202
359.889,-6.12684
360.104,3.74437
360.318,0.180904
360.533,10.5846
360.748,2.67943
360.962,-5.38957
361.177,-9.03496
361.391,-3.21872
361.606,-7.97001
361.82,-1.33459
362.035,-4.77518
362.25,-17.063
362.464,2.18791
362.679,4.80931
362.893,0.590498
363.108,1.53256
363.322,7.88127
363.536,-10.8781
363.751,5.05507
363.965,2.26983
364.18,-12.2298
364.394,6.36577
364.609,4.19492
364.823,-2.80913
365.037,-14.7693
365.252,5.25987
365.466,3.08902
365.68,1.16393
365.895,-4.03791
366.109,8.29086
366.323,-8.62536
366.538,-7.39658
366.752,-1.70323
366.966,-3.71024
367.181,-5.43053
367.395,6.65249
367.609,-1.86706
367.823,2.39271
368.038,-11.4516
368.252,0.333534
368.466,0.434811
368.68,0.490443
368.894,0.561765
369.109,0.712968
369.323,0.805687
369.537,0.955464
369.751,1.04003
369.965,1.24177
370.179,1.30454
370.393,1.44738
370.607,1.4806
370.822,1.65891
371.036,1.72962
371.25,1.86411
371.464,1.84231
371.678,2.00512
371.892,2.06585
372.106,2.24803
372.32,2.29327
372.534,2.34992
372.748,2.41024
372.962,2.50662
373.176,2.59669
373.39,2.73709
373.604,2.9044
373.818,2.98672
374.031,3.19315
374.245,3.41506
374.459,3.57544
374.673,3.70565
374.887,3.72216
375.101,3.78655
375.315,3.82017
375.529,3.87988
375.742,4.04841
375.956,4.11443
376.17,4.29661
376.384,4.49244
376.598,4.69112
376.811,4.8034
377.025,4.77549
377.239,4.86617
377.453,5.0084
377.666,5.18202
377.88,5.37541
378.094,5.48341
378.307,5.6878
378.521,5.87629
378.735,6.00732
378.948,6.17809
379.162,6.27876
379.376,6.38696
379.589,6.51983
379.803,6.74174
380.016,6.8259
380.23,7.11975
380.444,7.3007
380.657,7.55543
380.871,7.84459
381.084,8.07689
381.298,8.36402
381.511,8.56433
381.725,8.72185
381.938,8.90708
382.152,9.03913
382.365,9.24801
382.579,9.45627
382.792,9.68185
383.006,9.89643
383.219,10.0511
383.433,10.2376
383.646,10.4925
383.859,10.7916
384.073,10.9665
384.286,11.1735
384.5,11.3263
384.713,11.5603
384.926,11.7681
385.14,12.0286
385.353,12.1533
385.566,12.377
385.779,12.6484
385.993,12.8357
386.206,13.0277
386.419,13.2785
386.633,13.6036
386.846,13.8353
387.059,14.1053
387.272,14.3113
387.485,14.6583
387.699,14.8458
387.912,15.1702
388.125,15.4922
388.338,15.8384
388.551,16.0676
388.764,16.3128
388.978,16.4579
389.191,16.7629
389.404,17.0323
389.617,17.423
389.83,17.7011
390.043,18.04
390.256,18.3738
390.469,18.6738
390.682,18.9511
390.895,19.279
391.108,19.5789
391.321,19.9243
391.534,20.2194
391.747,20.5053
391.96,20.8232
392.173,21.1474
392.386,21.5075
392.599,21.871
392.812,22.269
393.025,22.6448
393.238,22.9219
393.451,23.3227
393.663,23.6103
393.876,24.0297
394.089,24.4164
394.302,24.8103
394.515,25.1997
394.728,25.4744
394.941,25.7518
395.153,26.1716
395.366,26.5131
395.579,26.843
395.792,27.1974
396.004,27.6174
396.217,28.0298
396.43,28.3628
396.643,28.7339
396.855,29.096
397.068,29.4577
397.281,29.8438
397.493,30.218
397.706,30.6094
397.919,31.0015
398.131,31.5385
398.344,31.9265
398.557,32.3354
398.769,32.797
398.982,33.2225
399.194,33.5699
399.407,34.0875
399.619,34.4947
399.832,34.9519
400.045,35.3277
400.257,35.7322
400.47,36.1628
400.682,36.6394
400.895,37.1882
401.107,37.686
401.319,38.0402
401.532,38.4804
401.744,38.9105
401.957,39.4239
402.169,39.8495
402.382,40.3963
402.594,40.8984
402.806,41.3428
403.019,41.8052
403.231,42.3232
403.444,42.8327
403.656,43.3229
403.868,43.8819
404.081,44.3716
404.293,44.9444
404.505,45.41
404.717,45.8893
404.93,46.3975
405.142,46.9979
405.354,47.5913
405.566,48.0663
405.779,48.6075
405.991,49.2156
406.203,49.8127
406.415,50.3953
406.627,51.0115
406.84,51.5138
407.052,52.0691
407.264,52.648
407.476,53.2457
407.688,53.8387
407.9,54.5423
408.112,55.1953
408.324,55.9655
408.537,56.617
408.749,57.285
408.961,57.9267
409.173,58.5393
409.385,59.2773
409.597,59.9934
409.809,60.6991
410.021,61.3013
410.233,62.0196
410.445,62.6851
410.657,63.4283
410.869,64.104
411.081,64.8717
411.292,65.5851
411.504,66.4024
411.716,67.1672
411.928,67.9422
412.14,68.7459
412.352,69.507
412.564,70.2754
412.776,71.0732
412.988,71.9295
413.199,72.6087
413.411,73.4786
413.623,74.2615
413.835,75.128
414.047,76.058
414.258,77.0081
414.47,77.8511
414.682,78.7023
414.894,79.5834
415.105,80.4845
415.317,81.4404
415.529,82.4461
415.74,83.4735
415.952,84.4649
416.164,85.432
416.375,86.3682
416.587,87.3066
416.799,88.2493
417.01,89.0719
417.222,90.0388
417.433,90.9789
417.645,91.9458
417.857,92.9309
418.068,93.9524
418.28,94.9487
418.491,95.9696
418.703,97.0606
418.914,98.1608
419.126,99.1416
419.337,100.18
419.549,101.242
419.76,102.305
419.972,103.453
420.183,104.544
420.394,105.56
420.606,106.669
420.817,107.695
421.029,108.742
421.24,109.847
421.451,111.021
421.663,112.17
421.874,113.264
422.085,114.356
422.297,115.598
422.508,116.686
422.719,117.928
422.931,119.065
423.142,120.316
423.353,121.475
423.565,122.608
423.776,123.767
423.987,124.862
424.198,126.161
424.409,127.324
424.621,128.559
424.832,129.752
425.043,130.936
425.254,132.199
425.465,133.494
425.676,134.737
425.888,136.069
426.099,137.357
426.31,138.616
426.521,139.937
426.732,141.164
426.943,142.466
427.154,143.834
427.365,145.168
427.576,146.458
427.787,147.834
427.998,149.163
428.209,150.52
428.42,151.867
428.631,153.256
428.842,154.657
429.053,156.026
429.264,157.397
429.475,158.776
429.686,160.11
429.897,161.527
430.108,162.825
430.319,164.196
430.529,165.506
430.74,166.844
430.951,168.151
431.162,169.553
431.373,170.985
431.584,172.54
431.794,174.005
432.005,175.478
432.216,176.938
432.427,178.433
432.637,179.929
432.848,181.358
433.059,182.874
433.27,184.42
433.48,185.964
433.691,187.467
433.902,189.003
434.112,190.625
434.323,192.253
434.534,193.738
434.744,195.234
434.955,196.68
435.166,198.197
435.376,199.737
435.587,201.246
435.797,202.759
436.008,204.305
436.218,205.876
436.429,207.391
436.64,209.031
436.85,210.606
437.061,212.283
437.271,214.051
437.482,215.744
437.692,217.424
437.902,219.124
438.113,220.787
438.323,222.427
438.534,224.215
438.744,225.882
438.955,227.652
439.165,229.434
439.375,231.201
439.586,232.923
439.796,234.684
440.006,236.534
440.217,238.357
440.427,240.184
440.637,241.91
440.848,243.73
441.058,245.599
441.268,247.406
441.479,249.276
441.689,251.128
441.899,252.997
442.109,254.869
442.319,256.693
442.53,258.661
442.74,260.598
442.95,262.508
443.16,264.42
443.37,266.336
443.58,268.223
443.791,270.29
444.001,272.282
444.211,274.255
444.421,276.138
444.631,278.285
444.841,280.232
445.051,282.19
445.261,284.214
445.471,286.552
445.681,288.528
445.891,290.548
446.101,292.628
446.311,294.736
446.521,296.847
446.731,298.962
446.941,301.219
447.151,303.334
447.361,305.422
447.571,307.393
447.781,309.535
447.991,311.727
448.201,313.864
448.41,316.041
448.62,318.192
448.83,320.319
449.04,322.529
449.25,324.952
449.46,327.32
449.669,329.635
449.879,331.949
450.089,334.291
450.299,336.546
450.508,338.798
450.718,341.146
450.928,343.426
451.138,345.661
451.347,348.021
451.557,350.395
451.767,352.713
451.976,355.056
452.186,357.39
452.396,359.872
452.605,362.275
452.815,364.639
453.025,366.999
453.234,369.436
453.444,371.997
453.653,374.506
453.863,376.954
454.072,379.495
454.282,381.963
454.491,384.507
454.701,387.063
454.911,389.598
455.12,392.164
455.329,394.658
455.539,397.236
455.748,399.751
455.958,402.35
456.167,404.905
456.377,407.398
456.586,409.914
456.795,412.622
457.005,415.279
457.214,417.876
457.424,420.589
457.633,423.284
457.842,425.83
458.052,428.429
458.261,431.063
458.47,433.763
458.679,436.376
458.889,439.155
459.098,442.014
459.307,444.773
459.517,447.5
459.726,450.285
459.935,453.188
460.144,456.081
460.353,459.018
460.563,461.917
460.772,464.778
460.981,467.814
461.19,470.568
461.399,473.532
461.608,476.446
461.817,479.433
462.026,482.457
462.236,485.488
462.445,488.422
462.654,491.576
462.863,494.442
463.072,497.643
463.281,500.716
463.49,503.928
463.699,507.022
463.908,510.12
464.117,513.3
464.326,516.586
464.535,519.714
464.744,522.955
464.952,526.263
465.161,529.498
465.37,532.802
465.579,536.146
465.788,539.629
465.997,543.107
466.206,546.587
466.415,550.006
466.623,553.534
466.832,557.146
467.041,560.63
467.25,564.118
467.459,567.4
467.667,570.927
467.876,574.583
468.085,578.38
468.294,582.04
468.502,585.789
468.711,589.542
468.92,593.397
469.128,597.271
469.337,600.974
469.546,604.62
469.754,608.551
469.963,612.306
470.172,616.23
470.38,620.203
470.589,624.019
470.798,627.878
471.006,631.73
471.215,635.627
471.423,639.681
471.632,643.618
471.84,647.739
472.049,651.822
472.257,656.027
472.466,660.254
472.674,664.516
472.883,668.685
473.091,672.892
473.3,677.177
473.508,681.565
473.716,685.703
473.925,689.746
474.133,694.11
474.342,698.378
474.55,702.711
474.758,707.178
474.967,711.436
475.175,715.819
475.383,720.068
475.592,724.491
475.8,728.927
476.008,733.206
476.217,737.567
476.425,742.04
476.633,746.628
476.841,751.116
477.05,755.715
477.258,760.343
477.466,764.801
477.674,769.534
477.882,774.307
478.091,779.007
478.299,783.651
478.507,788.23
478.715,792.7
478.923,797.386
479.131,802.021
479.339,806.625
479.547,811.237
479.755,815.716
479.963,820.422
480.171,825.093
480.38,829.788
480.588,834.285
480.796,838.926
481.004,843.605
481.212,848.271
481.42,853
481.627,857.625
481.835,862.382
482.043,867.082
482.251,871.703
482.459,876.497
482.667,881.272
482.875,885.996
483.083,890.695
483.291,895.417
483.499,900.089
483.706,904.86
483.914,909.514
484.122,914.296
484.33,919.077
484.538,923.719
484.745,928.422
484.953,933.13
485.161,937.921
485.369,942.701
485.576,947.383
485.784,952.074
485.992,956.683
486.199,961.393
486.407,965.989
486.615,970.667
486.822,975.29
487.03,979.921
487.238,984.661
487.445,988.932
487.653,993.474
487.861,998.095
488.068,1002.78
488.276,1007.36
488.483,1011.92
488.691,1016.4
488.898,1020.81
489.106,1025.41
489.313,1030.04
489.521,1034.66
489.728,1039.2
489.936,1043.76
490.143,1048.35
490.351,1052.75
490.558,1057.22
490.766,1061.71
490.973,1066.15
491.18,1070.49
491.388,1074.76
491.595,1079
491.802,1083.33
492.01,1087.62
492.217,1091.91
492.424,1096.29
492.632,1100.52
492.839,1104.72
493.046,1109
493.254,1113.17
493.461,1117.42
493.668,1121.61
493.875,1125.73
494.083,1129.88
494.29,1133.91
494.497,1137.96
494.704,1142.23
494.911,1146.25
495.119,1150.31
495.326,1154.31
495.533,1158.32
495.74,1162.3
495.947,1166.28
496.154,1170.19
496.361,1174.03
496.568,1177.78
496.775,1181.53
496.982,1185.26
497.19,1189.16
497.397,1192.98
497.604,1196.82
497.811,1200.44
498.018,1204.22
498.225,1207.94
498.432,1211.71
498.638,1215.28
498.845,1218.86
499.052,1222.31
499.259,1225.85
499.466,1229.39
499.673,1232.92
499.88,1236.49
500.087,1240.03
500.294,1243.43
500.501,1246.97
500.707,1250.35
500.914,1253.59
501.121,1257.03
501.328,1260.43
501.535,1263.67
501.741,1266.88
501.948,1270.04
502.155,1273.14
502.362,1276.26
502.568,1279.35
502.775,1282.25
502.982,1285.34
503.188,1288.32
503.395,1291.33
503.602,1294.17
503.808,1297.05
504.015,1299.8
504.222,1302.73
504.428,1305.52
504.635,1308.47
504.841,1311.18
505.048,1314.03
505.254,1316.74
505.461,1319.47
505.668,1322.14
505.874,1324.75
506.081,1327.26
506.287,1329.86
506.494,1332.44
506.7,1334.89
506.907,1337.38
507.113,1339.68
507.319,1342.05
507.526,1344.3
507.732,1346.47
507.939,1348.74
508.145,1350.88
508.351,1353.03
508.558,1354.83
508.764,1356.99
508.97,1359.12
509.177,1361.38
509.383,1363.38
509.589,1365.29
509.796,1366.98
510.002,1368.77
510.208,1370.49
510.414,1372.22
510.621,1373.88
510.827,1375.47
511.033,1377.2
511.239,1378.84
511.445,1380.31
511.652,1381.91
511.858,1383.43
512.064,1384.86
512.27,1386.37
512.476,1387.73
512.682,1389.09
512.888,1390.48
513.095,1391.59
513.301,1392.89
513.507,1393.95
513.713,1395.15
513.919,1396.12
514.125,1397.21
514.331,1398.09
514.537,1399.26
514.743,1400.19
514.949,1401.05
515.155,1401.84
515.361,1402.81
515.567,1403.73
515.773,1404.4
515.978,1405.08
516.184,1405.77
516.39,1406.18
516.596,1406.96
516.802,1407.51
517.008,1408.17
517.214,1408.69
517.419,1409.29
517.625,1409.87
517.831,1410.42
518.037,1410.74
518.243,1411.01
518.448,1411.42
518.654,1411.68
518.86,1411.81
519.066,1412.04
519.271,1412.12
519.477,1412.2
519.683,1412.14
519.888,1412.35
520.094,1412.43
520.3,1412.52
520.505,1412.42
520.711,1412.4
520.917,1412.23
521.122,1412.18
521.328,1412.25
521.533,1412
521.739,1411.87
521.944,1411.6
522.15,1411.48
522.356,1411.22
522.561,1410.99
522.767,1410.64
522.972,1410.35
523.177,1410.21
523.383,1409.75
523.588,1409.3
523.794,1409.01
523.999,1408.58
524.205,1408.04
524.41,1407.47
524.615,1406.94
524.821,1406.36
525.026,1405.72
525.232,1405.09
525.437,1404.47
525.642,1403.75
525.847,1402.97
526.053,1402.35
526.258,1401.6
526.463,1400.8
526.669,1399.89
526.874,1398.87
527.079,1398
527.284,1397.05
527.49,1396.06
527.695,1395.11
527.9,1394.29
528.105,1393.23
528.31,1392.26
528.515,1391.25
528.721,1389.94
528.926,1388.77
529.131,1387.7
529.336,1386.62
529.541,1385.32
529.746,1384.07
529.951,1382.76
530.156,1381.67
530.361,1380.37
530.566,1379.02
530.771,1377.62
530.976,1376.26
531.181,1374.88
531.386,1373.45
531.591,1371.98
531.796,1370.5
532.001,1369.04
532.206,1367.38
532.411,1365.88
532.616,1364.3
532.821,1362.66
533.025,1361.16
533.23,1359.59
533.435,1358.05
533.64,1356.4
533.845,1354.73
534.05,1353.01
534.254,1351.35
534.459,1349.61
534.664,1347.95
534.869,1346.1
535.073,1344.36
535.278,1342.7
535.483,1340.83
535.688,1339.03
535.892,1337.28
536.097,1335.3
536.302,1333.53
536.506,1331.72
536.711,1329.74
536.916,1327.7
537.12,1325.71
537.325,1323.72
537.529,1321.72
537.734,1319.62
537.938,1317.65
538.143,1315.69
538.348,1313.62
538.552,1311.62
538.757,1309.54
538.961,1307.41
539.166,1305.39
539.37,1303.23
539.575,1301
539.779,1298.85
539.983,1296.53
540.188,1294.45
540.392,1292.35
540.597,1290.12
540.801,1287.84
541.005,1285.75
541.21,1283.49
541.414,1281.14
541.618,1279.02
541.823,1276.69
542.027,1274.32
542.231,1272.03
542.436,1269.73
542.64,1267.39
542.844,1265.2
543.048,1262.87
543.253,1260.31
543.457,1257.89
543.661,1255.54
543.865,1253.18
544.069,1250.84
544.274,1248.53
544.478,1246.21
544.682,1243.72
544.886,1241.39
545.09,1238.98
545.294,1236.55
545.498,1234.03
545.702,1231.55
545.907,1229.08
546.111,1226.57
546.315,1223.94
546.519,1221.29
546.723,1218.72
546.927,1216.13
547.131,1213.6
547.335,1211.1
547.539,1208.43
547.743,1205.88
547.947,1203.16
548.15,1200.6
548.354,1198.05
548.558,1195.49
548.762,1192.89
548.966,1190.43
549.17,1187.76
549.374,1185.2
549.578,1182.65
549.781,1180.3
549.985,1177.71
550.189,1175.05
550.393,1172.49
550.597,1169.97
550.8,1167.37
551.004,1164.96
551.208,1162.49
551.412,1159.96
551.615,1157.39
551.819,1154.89
552.023,1152.32
552.226,1149.76
552.43,1147.31
552.634,1144.74
552.837,1142.26
553.041,1139.8
553.244,1137.16
553.448,1134.77
553.652,1132.33
553.855,1130
554.059,1127.54
554.262,1125.22
554.466,1122.81
554.669,1120.4
554.873,1118.02
555.076,1115.81
555.28,1113.44
555.483,1111.23
555.687,1108.77
555.89,1106.5
556.094,1104.28
556.297,1102.11
556.5,1099.79
556.704,1097.65
556.907,1095.38
557.111,1093.29
557.314,1091.07
557.517,1089.06
557.721,1086.93
557.924,1084.93
558.127,1082.92
558.33,1080.9
558.534,1078.84
558.737,1076.91
558.94,1074.86
559.144,1072.96
559.347,1070.99
559.55,1069.08
559.753,1067.27
559.956,1065.53
560.159,1063.7
560.363,1061.89
560.566,1060.12
560.769,1058.52
560.972,1056.76
561.175,1055.16
561.378,1053.48
561.581,1051.98
561.784,1050.34
561.987,1048.82
562.19,1047.31
562.394,1045.89
562.597,1044.58
562.8,1043.22
563.003,1041.99
563.205,1040.63
563.408,1039.4
563.611,1038.16
563.814,1037.05
564.017,1035.93
564.22,1034.71
564.423,1033.71
564.626,1032.7
564.829,1031.74
565.032,1030.75
565.235,1029.79
565.437,1028.9
565.64,1028.05
565.843,1027.32
566.046,1026.82
566.249,1026.15
566.451,1025.53
566.654,1024.84
566.857,1024.32
567.06,1023.72
567.262,1023.32
567.465,1022.88
567.668,1022.53
567.87,1022.4
568.073,1022.19
568.276,1022.06
568.478,1022.01
568.681,1021.93
568.884,1021.96
569.086,1022
569.289,1022.11
569.491,1022.19
569.694,1022.49
569.896,1022.78
570.099,1023.03
570.301,1023.37
570.504,1023.66
570.706,1024.02
570.909,1024.41
571.111,1024.89
571.314,1025.52
571.516,1026.16
571.719,1026.93
571.921,1027.7
572.124,1028.52
572.326,1029.34
572.528,1030.24
572.731,1031.19
572.933,1032.14
573.135,1033.25
573.338,1034.3
573.54,1035.52
573.742,1036.75
573.945,1037.94
574.147,1039.1
574.349,1040.2
574.551,1041.58
574.754,1042.87
574.956,1044.24
575.158,1045.72
575.36,1047.26
575.562,1048.7
575.765,1050.33
575.967,1051.89
576.169,1053.35
576.371,1055.07
576.573,1056.78
576.775,1058.5
576.977,1060.33
577.179,1062.01
577.382,1063.81
577.584,1065.73
577.786,1067.68
577.988,1069.63
578.19,1071.54
578.392,1073.42
578.594,1075.65
578.796,1077.75
578.998,1079.86
579.2,1082.07
579.401,1084.15
579.603,1086.29
579.805,1088.6
580.007,1090.78
580.209,1093.03
580.411,1095.44
580.613,1097.75
580.815,1100.25
581.016,1102.6
581.218,1104.96
581.42,1107.44
581.622,1109.91
581.824,1112.38
582.025,1114.73
582.227,1117.32
582.429,1119.74
582.631,1122.23
582.832,1124.83
583.034,1127.42
583.236,1129.92
583.437,1132.58
583.639,1135.12
583.841,1137.86
584.042,1140.64
584.244,1143.54
584.446,1146.19
584.647,1148.85
584.849,1151.54
585.05,1154.29
585.252,1156.9
585.453,1159.76
585.655,1162.54
585.856,1165.33
586.058,1168.27
586.259,1171.15
586.461,1174
586.662,1177.02
586.864,1179.99
587.065,1183.05
587.267,1186.01
587.468,1188.96
587.67,1192.03
587.871,1195.11
588.072,1198.13
588.274,1201.28
588.475,1204.21
588.676,1207.41
588.878,1210.49
589.079,1213.58
589.28,1216.61
589.481,1219.67
589.683,1222.8
589.884,1226.09
590.085,1229.14
590.286,1232.31
590.488,1235.4
590.689,1238.47
590.89,1241.72
591.091,1244.87
591.292,1247.95
591.494,1251.09
591.695,1254.12
591.896,1257.23
592.097,1260.43
592.298,1263.64
592.499,1266.81
592.7,1269.93
592.901,1273.22
593.102,1276.42
593.303,1279.68
593.504,1282.94
593.705,1286.07
593.906,1289.37
594.107,1292.51
594.308,1295.82
594.509,1298.94
594.71,1302.2
594.911,1305.39
595.112,1308.63
595.313,1311.93
595.514,1315.06
595.715,1318.18
595.915,1321.31
596.116,1324.44
596.317,1327.69
596.518,1330.76
596.719,1334.01
596.92,1337.03
597.12,1340.12
597.321,1343.28
597.522,1346.44
597.723,1349.43
597.923,1352.57
598.124,1355.68
598.325,1358.72
598.525,1361.58
598.726,1364.62
598.927,1367.66
599.127,1370.54
599.328,1373.5
599.529,1376.53
599.729,1379.37
599.93,1382.45
600.13,1385.35
600.331,1388.11
600.531,1390.91
600.732,1393.98
600.933,1396.9
601.133,1399.82
601.334,1402.71
601.534,1405.48
601.734,1408.31
601.935,1411.18
602.135,1413.84
602.336,1416.69
602.536,1419.41
602.737,1422.22
602.937,1424.88
603.137,1427.54
603.338,1430.14
603.538,1432.74
603.738,1435.29
603.939,1437.83
604.139,1440.25
604.339,1442.74
604.54,1444.98
604.74,1447.47
604.94,1449.8
605.14,1452.26
605.341,1454.46
605.541,1456.85
605.741,1459.17
605.941,1461.61
606.141,1463.86
606.342,1466.03
606.542,1468.05
606.742,1470.19
606.942,1472.38
607.142,1474.63
607.342,1476.66
607.542,1478.82
607.742,1480.76
607.942,1482.7
608.142,1484.58
608.343,1486.52
608.543,1488.32
608.743,1490.01
608.943,1491.69
609.143,1493.39
609.342,1494.96
609.542,1496.66
609.742,1498.29
609.942,1500.01
610.142,1501.43
610.342,1503.14
610.542,1504.61
610.742,1506.13
610.942,1507.65
611.142,1509.31
611.341,1510.87
611.541,1512.2
611.741,1513.73
611.941,1515.1
612.141,1516.32
612.34,1517.59
612.54,1518.75
612.74,1520.05
612.94,1521.26
613.139,1522.47
613.339,1523.63
613.539,1524.86
613.738,1525.92
613.938,1527
614.138,1528.06
614.337,1529.1
614.537,1530.24
614.736,1531.24
614.936,1532.29
615.136,1533.35
615.335,1534.28
615.535,1535.24
615.734,1536.14
615.934,1537.05
616.133,1537.88
616.333,1538.82
616.532,1539.68
616.732,1540.71
616.931,1541.52
617.131,1542.19
617.33,1542.85
617.529,1543.77
617.729,1544.55
617.928,1545.26
618.128,1545.98
618.327,1546.76
618.526,1547.49
618.726,1548.34
618.925,1548.96
619.124,1549.59
619.324,1550.29
619.523,1550.98
619.722,1551.54
619.921,1552.26
620.121,1552.77
620.32,1553.54
620.519,1554.22
620.718,1554.95
620.917,1555.56
621.117,1556.36
621.316,1556.93
621.515,1557.67
621.714,1558.32
621.913,1559
622.112,1559.72
622.311,1560.46
622.51,1561.04
622.709,1561.7
622.909,1562.46
623.108,1563.18
623.307,1563.87
623.506,1564.68
623.705,1565.33
623.904,1566.13
624.103,1566.75
624.301,1567.65
624.5,1568.25
624.699,1569.06
624.898,1570.01
625.097,1570.95
625.296,1571.78
625.495,1572.79
625.694,1573.58
625.893,1574.6
626.091,1575.46
626.29,1576.21
626.489,1577.09
626.688,1577.92
626.887,1578.7
627.085,1579.59
627.284,1580.43
627.483,1581.44
627.682,1582.38
627.88,1583.17
628.079,1583.99
628.278,1584.86
628.476,1585.77
628.675,1586.79
628.874,1587.7
629.072,1588.58
629.271,1589.47
629.47,1590.37
629.668,1591.31
629.867,1592.22
630.065,1593.06
630.264,1594.09
630.462,1594.96
630.661,1596
630.859,1596.98
631.058,1597.93
631.256,1599.03
631.455,1600.15
631.653,1601.21
631.852,1602.36
632.05,1603.45
632.249,1604.55
632.447,1605.64
632.645,1606.93
632.844,1608.01
633.042,1609.21
633.24,1610.37
633.439,1611.55
633.637,1612.68
633.835,1614.04
634.034,1615.24
634.232,1616.58
634.43,1617.66
634.628,1618.96
634.827,1620.08
635.025,1621.36
635.223,1622.54
635.421,1623.87
635.62,1625.09
635.818,1626.41
636.016,1627.64
636.214,1629.04
636.412,1630.22
636.61,1631.68
636.808,1632.88
637.006,1634.33
637.205,1635.76
637.403,1637.08
637.601,1638.42
637.799,1639.81
637.997,1641.21
638.195,1642.47
638.393,1643.94
638.591,1645.54
638.789,1646.99
638.987,1648.39
639.184,1649.97
639.382,1651.56
639.58,1653.05
639.778,1654.69
639.976,1656.12
640.174,1657.73
640.372,1659.39
640.57,1661.07
640.767,1662.51
640.965,1664.11
641.163,1665.55
641.361,1667.13
641.559,1668.66
641.756,1670.24
641.954,1671.81
642.152,1673.55
642.35,1675.21
642.547,1677.09
642.745,1678.63
642.943,1680.35
643.14,1681.84
643.338,1683.66
643.536,1685.27
643.733,1687.02
643.931,1688.67
644.128,1690.41
644.326,1691.93
644.524,1693.79
644.721,1695.44
644.919,1697.22
645.116,1698.76
645.314,1700.6
645.511,1702.14
645.709,1704
645.906,1705.64
646.104,1707.38
646.301,1709.18
646.498,1711.05
646.696,1712.78
646.893,1714.57
647.091,1716.26
647.288,1718.16
647.485,1719.87
647.683,1721.52
647.88,1723.37
648.077,1725.19
648.275,1726.86
648.472,1728.65
648.669,1730.44
648.867,1732.44
649.064,1734.15
649.261,1735.98
649.458,1737.65
649.655,1739.36
649.853,1741.09
650.05,1743.02
650.247,1744.67
650.444,1746.53
650.641,1748.26
650.838,1750.1
651.036,1751.68
651.233,1753.47
651.43,1755.08
651.627,1756.71
651.824,1758.32
652.021,1760.07
652.218,1761.77
652.415,1763.44
652.612,1765
652.809,1766.67
653.006,1768.3
653.203,1769.96
653.4,1771.48
653.597,1773.17
653.794,1774.65
653.991,1776.31
654.187,1777.88
654.384,1779.35
654.581,1780.92
654.778,1782.26
654.975,1783.73
655.172,1785.34
655.369,1786.76
655.565,1788.23
655.762,1789.77
655.959,1791.23
656.156,1792.58
656.352,1794.04
656.549,1795.31
656.746,1796.77
656.943,1798.26
657.139,1799.76
657.336,1801.02
657.533,1802.37
657.729,1803.66
657.926,1805.11
658.122,1806.49
658.319,1807.82
658.516,1809.12
658.712,1810.41
658.909,1811.79
659.105,1813.15
659.302,1814.29
659.498,1815.73
659.695,1816.92
659.891,1818.2
660.088,1819.39
660.284,1820.5
660.481,1821.46
660.677,1822.7
660.874,1823.73
661.07,1824.84
661.266,1825.86
661.463,1826.81
661.659,1827.92
661.856,1828.81
662.052,1829.8
662.248,1830.78
662.444,1831.6
662.641,1832.56
662.837,1833.36
663.033,1834.24
663.23,1834.95
663.426,1835.84
663.622,1836.49
663.818,1837.27
664.014,1838.03
664.211,1838.67
664.407,1839.4
664.603,1839.86
664.799,1840.35
664.995,1840.94
665.191,1841.45
665.387,1842.07
665.584,1842.38
665.78,1843.02
665.976,1843.52
666.172,1844.04
666.368,1844.38
666.564,1844.85
666.76,1845.17
666.956,1845.56
667.152,1845.72
667.348,1846.02
667.544,1846.39
667.74,1846.67
667.936,1846.79
668.131,1847.06
668.327,1847.1
668.523,1847.24
668.719,1847.31
668.915,1847.53
669.111,1847.68
669.307,1847.76
669.502,1847.75
669.698,1847.68
669.894,1847.55
670.09,1847.55
670.285,1847.36
670.481,1847.39
670.677,1847.14
670.873,1846.84
671.068,1846.43
671.264,1846.15
671.46,1845.74
671.655,1845.3
671.851,1844.82
672.047,1844.32
672.242,1843.76
672.438,1843.42
672.633,1842.69
672.829,1842.18
673.025,1841.64
673.22,1840.89
673.416,1840.07
673.611,1839.38
673.807,1838.43
674.002,1837.79
674.198,1836.89
674.393,1836.12
674.589,1835.14
674.784,1834.14
674.979,1833.08
675.175,1832.08
675.37,1830.97
675.566,1830.02
675.761,1828.85
675.956,1827.74
676.152,1826.45
676.347,1825.24
676.542,1823.89
676.738,1822.57
676.933,1821.17
677.128,1819.93
677.323,1818.54
677.519,1817.06
677.714,1815.66
677.909,1814.16
678.104,1812.54
678.299,1810.86
678.494,1809.33
678.69,1807.57
678.885,1805.82
679.08,1803.94
679.275,1802.18
679.47,1800.39
679.665,1798.5
679.86,1796.62
680.055,1794.59
680.25,1792.72
680.445,1790.75
680.64,1788.79
680.835,1786.59
681.03,1784.58
681.225,1782.48
681.42,1780.41
681.615,1778.17
681.81,1775.87
682.005,1773.35
682.2,1771.04
682.395,1768.54
682.59,1766.26
682.785,1763.62
682.979,1761.29
683.174,1758.75
683.369,1756.43
683.564,1753.83
683.759,1751.43
683.953,1748.78
684.148,1746.26
684.343,1743.6
684.538,1740.97
684.732,1738.28
684.927,1735.75
685.122,1732.9
685.316,1730
685.511,1727.26
685.706,1724.53
685.9,1721.58
686.095,1718.79
686.29,1715.84
686.484,1712.93
686.679,1710.01
686.873,1706.97
687.068,1704.06
687.262,1701.24
687.457,1698.19
687.651,1695.27
687.846,1692.29
688.04,1689.44
688.235,1686.19
688.429,1683.28
688.624,1680.25
688.818,1677.28
689.013,1674.27
689.207,1671.22
689.401,1668.08
689.596,1664.97
689.79,1661.86
689.984,1658.64
690.179,1655.47
690.373,1652.32
690.567,1649.1
690.762,1646.11
690.956,1642.84
691.15,1639.77
691.344,1636.47
691.538,1633.41
691.733,1630.22
691.927,1627.12
692.121,1623.94
692.315,1620.75
692.509,1617.62
692.703,1614.58
692.898,1611.44
693.092,1608.3
693.286,1605.12
693.48,1602.01
693.674,1598.87
693.868,1595.92
694.062,1592.9
694.256,1589.71
694.45,1586.56
694.644,1583.48
694.838,1580.41
695.032,1577.31
695.226,1574.23
695.42,1571.1
695.614,1567.92
695.808,1564.76
696.002,1561.56
696.195,1558.48
696.389,1555.39
696.583,1552.35
696.777,1549.22
696.971,1546.21
697.165,1543.07
697.358,1540
697.552,1537
697.746,1533.99
697.94,1530.95
698.133,1527.86
698.327,1524.73
698.521,1521.83
698.715,1518.71
698.908,1515.75
699.102,1512.79
699.296,1509.85
699.489,1506.98
699.683,1504.2
699.876,1501.21
700.07,1498.24
700.264,1495.53
700.457,1492.78
700.651,1490.03
700.844,1487.17
701.038,1484.37
701.231,1481.72
701.425,1478.92
701.618,1476.28
701.812,1473.52
702.005,1470.86
702.199,1468.15
702.392,1465.59
702.586,1462.94
702.779,1460.31
702.972,1457.69
703.166,1455.04
703.359,1452.56
703.552,1450.03
703.746,1447.46
703.939,1445.13
704.132,1442.61
704.326,1440.18
704.519,1437.65
704.712,1435.2
704.905,1432.68
705.099,1430.36
705.292,1427.87
705.485,1425.55
705.678,1423.02
705.871,1420.76
706.064,1418.53
706.258,1416.41
706.451,1414.12
706.644,1411.94
706.837,1409.74
707.03,1407.72
707.223,1405.51
707.416,1403.5
707.609,1401.32
707.802,1399.4
707.995,1397.19
708.188,1395.17
708.381,1393.18
708.574,1391.22
708.767,1389.33
708.96,1387.58
709.153,1385.77
709.346,1383.96
709.539,1382.02
709.732,1380.29
709.924,1378.44
710.117,1376.82
710.31,1375.17
710.503,1373.54
710.696,1372.05
710.889,1370.52
711.081,1369
711.274,1367.34
711.467,1365.84
711.66,1364.52
711.852,1362.98
712.045,1361.54
712.238,1360.22
712.43,1359
712.623,1357.62
712.816,1356.53
713.008,1355.2
713.201,1354.18
713.394,1352.99
713.586,1352.04
713.779,1351.14
713.971,1350.18
714.164,1349.27
714.356,1348.4
714.549,1347.36
714.741,1346.53
714.934,1345.72
715.126,1345.03
715.319,1344.34
715.511,1343.64
715.704,1342.94
715.896,1342.41
716.088,1341.76
716.281,1341.35
716.473,1340.91
716.666,1340.48
716.858,1340
717.05,1339.76
717.243,1339.46
717.435,1339.13
717.627,1338.95
717.819,1338.86
718.012,1338.79
718.204,1338.77
718.396,1338.69
718.588,1338.71
718.781,1338.73
718.973,1338.94
719.165,1339.1
719.357,1339.37
719.549,1339.49
719.741,1339.87
719.934,1340.3
720.126,1340.75
720.318,1341.25
720.51,1341.79
720.702,1342.52
720.894,1343.31
721.086,1344.1
721.278,1344.97
721.47,1345.9
721.662,1346.83
721.854,1347.74
722.046,1348.85
722.238,1349.71
722.43,1351.1
722.622,1352.31
722.814,1353.71
723.005,1355.04
723.197,1356.57
723.389,1358.06
723.581,1359.66
723.773,1361.12
723.965,1362.81
724.156,1364.65
724.348,1366.38
724.54,1368.1
724.732,1370.03
724.923,1371.97
725.115,1374.07
725.307,1376.19
725.499,1378.35
725.69,1380.81
725.882,1383.18
726.074,1385.46
726.265,1388.1
726.457,1390.61
726.648,1393.35
726.84,1395.9
727.032,1398.87
727.223,1401.72
727.415,1404.69
727.606,1407.56
727.798,1410.78
727.989,1413.99
728.181,1417.41
728.372,1420.93
728.564,1424.38
728.755,1427.96
728.947,1431.76
729.138,1435.56
729.329,1439.49
729.521,1443.48
729.712,1447.52
729.904,1451.69
730.095,1456.02
730.286,1460.23
730.478,1464.68
730.669,1469.23
730.86,1473.94
731.051,1478.65
731.243,1483.61
731.434,1488.51
731.625,1493.35
731.816,1498.51
732.008,1503.75
732.199,1509.01
732.39,1514.52
732.581,1519.89
732.772,1525.58
732.963,1531.26
733.154,1537.17
733.346,1543.11
733.537,1549.3
733.728,1555.46
733.919,1561.79
734.11,1568.21
734.301,1575.01
734.492,1581.74
734.683,1588.66
734.874,1595.61
735.065,1602.66
735.256,1609.83
735.447,1617.24
735.638,1624.83
735.829,1632.49
736.019,1640.2
736.21,1648.07
736.401,1656.13
736.592,1664.15
736.783,1672.1
736.974,1680.49
737.164,1688.89
737.355,1697.55
737.546,1706.21
737.737,1715.07
737.928,1723.92
738.118,1733.01
738.309,1742.1
738.5,1751.56
738.69,1760.99
738.881,1770.5
739.072,1780.08
739.262,1789.94
739.453,1799.6
739.644,1809.72
739.834,1819.7
740.025,1830.13
740.215,1840.61
740.406,1851.2
740.596,1861.73
740.787,1872.63
740.978,1883.39
741.168,1894.36
741.358,1905.53
741.549,1916.96
741.739,1928.17
741.93,1939.74
742.12,1951.18
742.311,1963.12
742.501,1974.88
742.691,1986.87
742.882,1998.89
743.072,2011.06
743.263,2023.29
743.453,2035.67
743.643,2047.99
743.833,2060.6
744.024,2073.28
744.214,2086.25
744.404,2098.69
744.594,2111.66
744.785,2124.72
744.975,2137.75
745.165,2151.09
745.355,2164.61
745.545,2177.96
745.736,2191.69
745.926,2205.17
746.116,2219.01
746.306,2232.81
746.496,2246.93
746.686,2261.17
746.876,2275.2
747.066,2289.34
747.256,2303.85
747.446,2317.76
747.636,2332.13
747.826,2346.44
748.016,2361.2
748.206,2375.76
748.396,2390.66
748.586,2405.39
748.776,2420.39
748.966,2435.27
749.156,2450.5
749.346,2465.39
749.535,2480.36
749.725,2495.61
749.915,2510.79
750.105,2525.85
750.295,2541.05
750.484,2556.09
750.674,2571.49
750.864,2586.78
751.054,2602.3
751.243,2617.56
751.433,2633.25
751.623,2648.5
751.812,2664.11
752.002,2679.61
752.192,2695.05
752.381,2710.66
752.571,2726.35
752.761,2741.88
752.95,2757.7
753.14,2773.21
753.329,2788.78
753.519,2804.47
753.708,2820.26
753.898,2835.91
754.087,2851.59
754.277,2867.33
754.466,2882.98
754.656,2898.77
754.845,2914.49
755.035,2929.92
755.224,2945.87
755.413,2961.42
755.603,2977.42
755.792,2992.88
755.982,3008.63
756.171,3024.09
756.36,3039.97
756.549,3055.38
756.739,3071.1
756.928,3086.76
757.117,3102.41
757.307,3117.97
757.496,3133.32
757.685,3148.87
757.874,3164.43
758.063,3179.86
758.253,3195.36
758.442,3210.55
758.631,3225.91
758.82,3241.03
759.009,3256.01
759.198,3271.21
759.387,3286.28
759.576,3301.3
759.765,3316.36
759.954,3331.23
760.143,3346.26
760.332,3360.91
760.521,3375.9
760.71,3390.34
760.899,3405.13
761.088,3419.68
761.277,3434.27
761.466,3448.49
761.655,3462.88
761.844,3476.88
762.033,3491.41
762.222,3505.52
762.411,3519.54
762.599,3533.33
762.788,3547.42
762.977,3561.19
763.166,3574.95
763.355,3588.46
763.543,3602.14
763.732,3615.64
763.921,3628.81
764.109,3641.96
764.298,3655.1
764.487,3668.07
764.675,3681.08
764.864,3693.78
765.053,3706.78
765.241,3719.33
765.43,3731.9
765.619,3744.33
765.807,3756.87
765.996,3768.99
766.184,3781.07
766.373,3792.98
766.561,3804.77
766.75,3816.6
766.938,3828.23
767.127,3839.57
767.315,3851.02
767.504,3862.14
767.692,3873.28
767.881,3884.18
768.069,3895.08
768.257,3905.77
768.446,3916.45
768.634,3926.95
768.822,3937.25
769.011,3947.19
769.199,3957.35
769.387,3967.16
769.576,3977.05
769.764,3986.68
769.952,3996.26
770.14,4005.46
770.328,4014.67
770.517,4023.73
770.705,4032.92
770.893,4041.75
771.081,4050.55
771.269,4059.03
771.457,4067.62
771.646,4075.64
771.834,4083.92
772.022,4091.91
772.21,4099.63
772.398,4107.03
772.586,4114.47
772.774,4121.6
772.962,4128.93
773.15,4135.75
773.338,4142.65
773.526,4149.17
773.714,4155.68
773.902,4161.96
774.09,4168.24
774.278,4174.04
774.465,4179.8
774.653,4185.46
774.841,4191.4
775.029,4196.55
775.217,4201.88
775.405,4206.5
775.592,4211.7
775.78,4216.14
775.968,4220.87
776.156,4224.88
776.343,4229.13
776.531,4232.87
776.719,4236.69
776.907,4240.08
777.094,4243.53
777.282,4246.49
777.47,4249.7
777.657,4252.44
777.845,4255.31
778.032,4257.72
778.22,4260.08
778.408,4261.92
778.595,4264.03
778.783,4265.7
778.97,4267.39
779.158,4268.64
779.345,4270.02
779.533,4270.92
779.72,4271.87
779.908,4272.46
780.095,4273.11
780.282,4273.43
780.47,4273.61
780.657,4273.61
780.845,4273.62
781.032,4273.18
781.219,4272.92
781.407,4272.3
781.594,4271.89
781.781,4270.98
781.969,4270.12
782.156,4268.69
782.343,4267.65
782.53,4266.19
782.718,4264.6
782.905,4262.78
783.092,4260.68
783.279,4258.47
783.466,4256.44
783.653,4253.88
783.841,4251.64
784.028,4248.98
784.215,4246.28
784.402,4243.35
784.589,4240.09
784.776,4237.15
784.963,4234.28
785.15,4230.66
785.337,4227.73
785.524,4224.1
785.711,4220.75
785.898,4216.85
786.085,4213.3
786.272,4209.23
786.459,4205.35
786.646,4200.98
786.833,4196.96
787.02,4192.41
787.206,4188.34
787.393,4184.01
787.58,4179.56
787.767,4174.93
787.954,4170.5
788.14,4165.94
788.327,4161.6
788.514,4156.75
788.701,4151.83
788.887,4146.79
789.074,4142.06
789.261,4136.97
789.448,4132.18
789.634,4127.02
789.821,4121.91
790.008,4116.97
790.194,4111.77
790.381,4106.47
790.567,4101.28
790.754,4096.03
790.94,4090.85
791.127,4085.7
791.314,4080.37
791.5,4074.68
791.687,4069.59
791.873,4064.1
792.059,4058.7
792.246,4053.5
792.432,4047.8
792.619,4042.24
792.805,4037.2
792.992,4031.4
793.178,4025.92
793.364,4020.21
793.551,4015
793.737,4009.31
793.923,4003.77
794.11,3997.91
794.296,3992.51
794.482,3986.85
794.668,3981.31
794.855,3975.54
795.041,3969.97
795.227,3964.34
795.413,3958.48
795.599,3952.95
795.786,3947.16
795.972,3941.31
796.158,3936
796.344,3930.14
796.53,3924.79
796.716,3919.23
796.902,3913.64
797.088,3908.08
797.274,3902.58
797.46,3896.91
797.646,3891.59
797.832,3885.86
798.018,3880.7
798.204,3875.05
798.39,3869.73
798.576,3864.1
798.762,3858.69
798.948,3853.33
799.134,3848.27
799.32,3842.97
799.506,3837.73
799.692,3832.13
799.877,3826.98
800.063,3821.71
800.249,3816.81
800.435,3811.46
800.621,3806.28
800.806,3801.32
800.992,3796.15
801.178,3791.06
801.363,3785.91
801.549,3781.02
801.735,3776.23
801.92,3771.22
802.106,3766.55
802.292,3761.5
802.477,3756.88
802.663,3751.71
802.849,3746.9
803.034,3741.94
803.22,3737.23
803.405,3732.43
803.591,3728.05
803.776,3723.25
803.962,3718.56
804.147,3713.81
804.333,3709.25
804.518,3704.79
804.703,3700.37
804.889,3695.75
805.074,3691.39
805.26,3686.6
805.445,3682.29
805.63,3677.57
805.816,3673.28
806.001,3668.68
806.186,3664.48
806.372,3660.11
806.557,3655.95
806.742,3651.5
806.927,3647.21
807.113,3642.77
807.298,3638.84
807.483,3634.49
807.668,3630.33
807.853,3626.23
808.039,3622.2
808.224,3617.77
808.409,3613.63
808.594,3609.37
808.779,3605.29
808.964,3600.94
809.149,3596.91
809.334,3592.54
809.519,3588.45
809.704,3584.59
809.889,3580.71
810.074,3576.85
810.259,3573.08
810.444,3568.86
810.629,3565.06
810.814,3561.04
810.999,3557.38
811.184,3553.36
811.369,3549.58
811.554,3545.54
811.738,3541.85
811.923,3537.86
812.108,3534
812.293,3530.14
812.478,3526.75
812.662,3522.7
812.847,3519.37
813.032,3515.37
813.217,3511.9
813.401,3508.05
813.586,3504.83
813.771,3501.17
813.955,3497.78
814.14,3494.11
814.325,3490.85
814.509,3487.23
814.694,3484.02
814.878,3480.57
815.063,3477.37
815.248,3473.86
815.432,3470.58
815.617,3467.03
815.801,3464.16
815.986,3460.88
816.17,3457.73
816.355,3454.42
816.539,3451.53
816.723,3448.29
816.908,3445.16
817.092,3442.18
817.277,3439.12
817.461,3436.14
817.645,3433.1
817.83,3430.16
818.014,3427.52
818.198,3424.44
818.383,3421.76
818.567,3418.82
818.751,3416.25
818.935,3413.26
819.12,3410.51
819.304,3407.32
819.488,3404.77
819.672,3402
819.856,3399.19
820.041,3396.28
820.225,3393.78
820.409,3391.01
820.593,3388.32
820.777,3385.46
820.961,3382.87
821.145,3380.08
821.329,3377.43
821.513,3374.68
821.697,3372.05
821.881,3369.4
822.065,3366.66
822.249,3363.63
822.433,3361.05
822.617,3358.06
822.801,3355.43
822.985,3352.4
823.169,3349.78
823.353,3346.8
823.536,3344.1
823.72,3341.12
823.904,3338.47
824.088,3335.41
824.272,3332.68
824.456,3329.74
824.639,3326.96
824.823,3323.95
825.007,3321.2
825.19,3318.03
825.374,3315.29
825.558,3312.15
825.742,3309.27
825.925,3306.15
826.109,3303.23
826.292,3299.86
826.476,3296.72
826.66,3293.43
826.843,3290.47
827.027,3287.14
827.21,3283.99
827.394,3280.59
827.577,3277.31
827.761,3273.88
827.944,3270.44
828.128,3267.02
828.311,3263.55
828.495,3259.95
828.678,3256.67
828.862,3252.89
829.045,3249.54
829.228,3245.86
829.412,3242.08
829.595,3238.5
829.778,3234.95
829.962,3231.04
830.145,3227.39
830.328,3223.63
830.512,3219.71
830.695,3215.67
830.878,3211.88
831.061,3208.05
831.244,3204.2
831.428,3200.19
831.611,3196.32
831.794,3192.14
831.977,3188.42
832.16,3184.43
832.343,3180.62
832.526,3176.64
832.709,3172.71
832.893,3168.96
833.076,3165.19
833.259,3161.03
833.442,3157.27
833.625,3153.14
833.808,3149.23
833.991,3145.09
834.174,3141.27
834.356,3137.15
834.539,3133.16
834.722,3129
834.905,3125
835.088,3120.55
835.271,3116.5
835.454,3112.23
835.637,3108.11
835.819,3103.8
836.002,3099.41
836.185,3094.77
836.368,3090.62
836.551,3086.43
836.733,3082.13
836.916,3077.63
837.099,3073.41
837.281,3068.81
837.464,3064.44
837.647,3059.9
837.829,3055.31
838.012,3050.86
838.195,3046.31
838.377,3041.71
838.56,3037.12
838.742,3032.25
838.925,3027.72
839.107,3022.79
839.29,3018.25
839.472,3013.43
839.655,3009.07
839.837,3004.37
840.02,2999.82
840.202,2994.94
840.385,2990.04
840.567,2984.9
840.749,2980.23
840.932,2975.31
841.114,2970.54
841.297,2965.61
841.479,2960.66
841.661,2955.58
841.843,2950.67
842.026,2945.7
842.208,2940.95
842.39,2936.01
842.572,2931.32
842.755,2926.43
842.937,2921.64
843.119,2916.52
843.301,2911.54
843.483,2906.48
843.666,2901.67
843.848,2896.59
844.03,2891.71
844.212,2886.5
844.394,2881.54
844.576,2876.55
844.758,2871.5
844.94,2866.22
845.122,2861.43
845.304,2856.33
845.486,2851.46
845.668,2846.39
845.85,2841.56
846.032,2836.48
846.214,2831.64
846.396,2826.46
846.578,2821.56
846.759,2816.32
846.941,2811.19
847.123,2806.1
847.305,2801.18
847.487,2796.13
847.669,2791.24
847.85,2786.06
848.032,2781.17
848.214,2775.97
848.396,2771.19
848.577,2766.09
848.759,2761.22
848.941,2756.31
849.122,2751.3
849.304,2746.07
849.486,2741.28
849.667,2736.34
849.849,2731.46
850.03,2726.45
850.212,2721.63
850.394,2716.47
850.575,2711.52
850.757,2706.57
850.938,2701.82
851.12,2696.85
851.301,2692.1
851.483,2687.04
851.664,2682.28
851.845,2677.25
852.027,2672.4
852.208,2667.37
852.39,2662.74
852.571,2657.81
852.752,2653
852.934,2648.12
853.115,2643.44
853.296,2638.59
853.478,2633.92
853.659,2629.08
853.84,2624.42
854.021,2619.8
854.203,2615.02
854.384,2610.29
854.565,2605.58
854.746,2600.59
854.927,2596.01
855.108,2591.31
855.29,2586.7
855.471,2581.73
855.652,2577.23
855.833,2572.56
856.014,2568.3
856.195,2563.68
856.376,2559.34
856.557,2554.74
856.738,2550.33
856.919,2545.78
857.1,2541.53
857.281,2536.96
857.462,2532.56
857.643,2528.09
857.824,2523.83
858.005,2519.52
858.185,2515.16
858.366,2510.84
858.547,2506.71
858.728,2502.41
858.909,2498.23
859.09,2493.98
859.27,2489.95
859.451,2485.72
859.632,2481.84
859.813,2477.64
859.993,2473.64
860.174,2469.56
860.355,2465.54
860.535,2461.43
860.716,2457.45
860.897,2453.26
861.077,2449.33
861.258,2445.24
861.438,2441.33
861.619,2437.11
861.8,2433.43
861.98,2429.2
862.161,2425.37
862.341,2421.4
862.522,2417.67
862.702,2413.7
862.883,2410.22
863.063,2406.4
863.243,2402.75
863.424,2398.83
863.604,2395.12
863.785,2391.17
863.965,2387.7
864.145,2383.94
864.326,2380.32
864.506,2376.57
864.686,2373.08
864.867,2369.41
865.047,2365.95
865.227,2362.27
865.407,2358.8
865.588,2355.24
865.768,2351.75
865.948,2348.16
866.128,2344.77
866.308,2341.13
866.488,2337.84
866.669,2334.31
866.849,2330.83
867.029,2327.39
867.209,2324.06
867.389,2320.57
867.569,2317.15
867.749,2313.65
867.929,2310.37
868.109,2306.93
868.289,2303.6
868.469,2300
868.649,2296.54
868.829,2292.94
869.009,2289.68
869.189,2286.02
869.369,2282.51
869.548,2278.9
869.728,2275.44
869.908,2271.82
870.088,2268.27
870.268,2264.64
870.448,2261.3
870.627,2257.49
870.807,2254
870.987,2250.28
871.167,2246.72
871.346,2243.05
871.526,2239.67
871.706,2236.08
871.885,2232.69
872.065,2229.12
872.245,2225.66
872.424,2222.14
872.604,2218.7
872.783,2214.91
872.963,2211.42
873.142,2207.89
873.322,2204.45
873.501,2200.84
873.681,2197.46
873.86,2193.9
874.04,2190.57
874.219,2186.98
874.399,2183.44
874.578,2179.92
874.758,2176.48
874.937,2173
875.116,2169.88
875.296,2166.31
875.475,2162.97
875.654,2159.58
875.834,2156.06
876.013,2152.52
876.192,2149.08
876.372,2145.54
876.551,2142.24
876.73,2139.02
876.909,2135.72
877.088,2132.28
877.268,2129.05
877.447,2125.52
877.626,2122.26
877.805,2118.81
877.984,2115.53
878.163,2112.23
878.342,2108.96
878.521,2105.71
878.7,2102.39
878.879,2098.9
879.059,2095.39
879.238,2091.96
879.417,2088.65
879.595,2085.3
879.774,2081.96
879.953,2078.56
880.132,2075.31
880.311,2071.88
880.49,2068.58
880.669,2065.12
880.848,2061.94
881.027,2058.55
881.205,2055.42
881.384,2051.94
881.563,2048.69
881.742,2045.31
881.921,2041.97
882.099,2038.45
882.278,2035.21
882.457,2031.69
882.635,2028.43
882.814,2024.87
882.993,2021.57
883.171,2018.23
883.35,2014.8
883.529,2011.25
883.707,2007.91
883.886,2004.3
884.064,2000.81
884.243,1997.25
884.422,1993.84
884.6,1990.07
884.779,1986.67
884.957,1983.11
885.136,1979.63
885.314,1976.03
885.492,1972.56
885.671,1969.09
885.849,1965.48
886.028,1961.78
886.206,1958.2
886.384,1954.46
886.563,1950.9
886.741,1947.24
886.919,1943.62
887.098,1939.86
887.276,1936.18
887.454,1932.32
887.632,1928.66
887.811,1924.84
887.989,1921.09
888.167,1917.41
888.345,1913.84
888.523,1910.04
888.702,1906.27
888.88,1902.52
889.058,1898.83
889.236,1894.86
889.414,1891
889.592,1887.03
889.77,1883.27
889.948,1879.25
890.126,1875.31
890.304,1871.42
890.482,1867.53
890.66,1863.53
890.838,1859.53
891.016,1855.43
891.194,1851.41
891.372,1847.35
891.55,1843.46
891.728,1839.2
891.905,1835.29
892.083,1831.17
892.261,1827.14
892.439,1822.86
892.617,1818.64
892.794,1814.45
892.972,1810.19
893.15,1805.89
893.328,1801.71
893.505,1797.41
893.683,1793.25
893.861,1788.83
894.038,1784.37
894.216,1780
894.394,1775.58
894.571,1770.96
894.749,1766.6
894.926,1762.19
895.104,1757.86
895.281,1753.28
895.459,1748.86
895.637,1744.28
895.814,1739.77
895.992,1735.14
896.169,1730.54
896.346,1725.99
896.524,1721.5
896.701,1716.94
896.879,1712.56
897.056,1707.77
897.233,1703.21
897.411,1698.44
897.588,1693.88
897.765,1689.16
897.943,1684.49
898.12,1679.59
898.297,1674.87
898.475,1670.16
898.652,1665.56
898.829,1660.62
899.006,1655.88
899.183,1651.01
899.361,1646.28
899.538,1641.53
899.715,1636.69
899.892,1631.76
900.069,1627.08
900.246,1622.19
900.423,1617.46
900.6,1612.4
900.777,1607.55
900.954,1602.57
901.131,1597.73
901.308,1592.74
901.485,1587.81
901.662,1582.75
901.839,1577.78
902.016,1572.68
902.193,1567.87
902.37,1562.67
902.547,1557.68
902.724,1552.67
902.9,1547.69
903.077,1542.62
903.254,1537.7
903.431,1532.65
903.608,1527.85
903.784,1522.68
903.961,1517.68
904.138,1512.61
904.315,1507.64
904.491,1502.51
904.668,1497.6
904.845,1492.42
905.021,1487.55
905.198,1482.47
905.375,1477.36
905.551,1472.32
905.728,1467.29
905.904,1462.26
906.081,1457.34
906.257,1452.12
906.434,1447.16
906.61,1441.96
906.787,1437
906.963,1431.97
907.14,1427.06
907.316,1422.01
907.493,1416.95
907.669,1411.8
907.845,1406.83
908.022,1401.78
908.198,1396.73
908.374,1391.9
908.551,1387.03
908.727,1381.96
908.903,1376.99
909.08,1371.95
909.256,1366.97
909.432,1362.02
909.608,1357.12
909.785,1352.13
909.961,1347.15
910.137,1342.38
910.313,1337.48
910.489,1332.53
910.665,1327.67
910.841,1322.57
911.018,1317.84
911.194,1312.94
911.37,1308.01
911.546,1303.13
911.722,1298.28
911.898,1293.45
912.074,1288.72
912.25,1283.81
912.426,1278.95
912.602,1274.08
912.777,1269.3
912.953,1264.48
913.129,1259.89
913.305,1254.98
913.481,1250.29
913.657,1245.48
913.833,1240.72
914.008,1235.91
914.184,1231.06
914.36,1226.35
914.536,1221.8
914.712,1217.18
914.887,1212.62
915.063,1207.93
915.239,1203.39
915.414,1198.81
915.59,1194.26
915.766,1189.71
915.941,1185.15
916.117,1180.67
916.292,1176.29
916.468,1171.69
916.644,1167.26
916.819,1162.65
916.995,1158.26
917.17,1153.83
917.346,1149.44
917.521,1144.98
917.697,1140.69
917.872,1136.28
918.048,1132
918.223,1127.68
918.398,1123.38
918.574,1119.05
918.749,1114.72
918.924,1110.45
919.1,1106.31
919.275,1102.02
919.45,1097.92
919.626,1093.81
919.801,1089.64
919.976,1085.56
920.151,1081.61
920.327,1077.47
920.502,1073.35
920.677,1069.32
920.852,1065.22
921.027,1061.03
921.202,1056.94
921.378,1052.87
921.553,1048.86
921.728,1044.94
921.903,1041.04
922.078,1037.13
922.253,1033.25
922.428,1029.35
922.603,1025.49
922.778,1021.61
922.953,1017.98
923.128,1014.22
923.303,1010.48
923.478,1006.72
923.652,1002.96
923.827,999.124
924.002,995.291
924.177,991.41
924.352,987.766
924.527,984.048
924.702,980.557
924.876,976.845
925.051,973.247
925.226,969.577
925.401,966.052
925.575,962.452
925.75,958.913
925.925,955.331
926.099,951.793
926.274,948.221
926.449,944.812
926.623,941.311
926.798,937.843
926.972,934.329
927.147,930.857
927.322,927.283
927.496,923.832
927.671,920.348
927.845,916.983
928.02,913.671
928.194,910.365
928.368,907.053
928.543,903.707
928.717,900.401
928.892,897.161
929.066,893.774
929.24,890.515
929.415,887.344
929.589,884.133
929.763,880.893
929.938,877.738
930.112,874.494
930.286,871.223
930.461,867.909
930.635,864.878
930.809,861.729
930.983,858.574
931.157,855.35
931.332,852.378
931.506,849.305
931.68,846.311
931.854,843.22
932.028,840.223
932.202,837.02
932.376,834.109
932.55,831.093
932.724,828.201
932.898,825.289
933.072,822.249
933.246,819.336
933.42,816.547
933.594,813.657
933.768,810.756
933.942,807.808
934.116,804.933
934.29,802.044
934.464,799.201
934.638,796.307
934.811,793.435
934.985,790.653
935.159,787.891
935.333,784.979
935.507,782.224
935.68,779.322
935.854,776.618
936.028,773.848
936.201,771.152
936.375,768.482
936.549,765.765
936.722,763.097
936.896,760.508
937.07,757.944
937.243,755.381
937.417,752.706
937.59,750.185
937.764,747.619
937.938,745.148
938.111,742.599
938.285,740.134
938.458,737.532
938.631,735.045
938.805,732.44
938.978,730.057
939.152,727.487
939.325,725.031
939.499,722.611
939.672,720.114
939.845,717.725
940.019,715.35
940.192,712.918
940.365,710.552
940.538,708.201
940.712,705.76
940.885,703.441
941.058,701.141
941.231,698.829
941.405,696.506
941.578,694.252
941.751,692.057
941.924,689.752
942.097,687.47
942.27,685.201
942.443,682.948
942.617,680.821
942.79,678.679
942.963,676.415
943.136,674.249
943.309,672.079
943.482,669.836
943.655,667.587
943.828,665.478
944.001,663.269
944.173,661.181
944.346,659.136
944.519,656.98
944.692,654.773
944.865,652.799
945.038,650.79
945.211,648.714
945.383,646.596
945.556,644.661
945.729,642.441
945.902,640.557
946.075,638.437
946.247,636.335
946.42,634.272
946.593,632.343
946.765,630.219
946.938,628.166
947.111,626.069
947.283,624.051
947.456,622.101
947.628,620.149
947.801,618.187
947.974,616.237
948.146,614.289
948.319,612.342
948.491,610.445
948.664,608.627
948.836,606.675
949.009,604.761
949.181,602.926
949.353,600.942
949.526,598.967
949.698,596.99
949.871,595.038
950.043,593.19
950.215,591.38
950.388,589.496
950.56,587.487
950.732,585.579
950.904,583.766
951.077,581.97
951.249,580.073
951.421,578.281
951.593,576.447
951.766,574.632
951.938,572.695
952.11,570.719
952.282,568.882
952.454,567.148
952.626,565.355
952.798,563.632
952.97,561.816
953.142,560.046
953.314,558.282
953.487,556.591
953.659,554.835
953.83,553.082
954.002,551.38
954.174,549.724
954.346,548.022
954.518,546.349
954.69,544.596
954.862,542.799
955.034,541.042
955.206,539.389
955.378,537.779
955.549,536.012
955.721,534.389
955.893,532.807
956.065,531.135
956.236,529.522
956.408,527.882
956.58,526.163
956.752,524.397
956.923,522.714
957.095,521.037
957.267,519.383
957.438,517.799
957.61,516.121
957.781,514.502
957.953,512.946
958.125,511.299
958.296,509.713
958.468,508.134
958.639,506.599
958.811,505.068
958.982,503.648
959.154,502.013
959.325,500.376
959.496,498.788
959.668,497.32
959.839,495.744
960.011,494.24
960.182,492.565
960.353,491.006
960.525,489.464
960.696,487.934
960.867,486.384
961.038,484.892
961.21,483.266
961.381,481.876
961.552,480.35
961.723,478.863
961.895,477.407
962.066,476.021
962.237,474.5
962.408,473.003
962.579,471.554
962.75,470.068
962.921,468.613
963.092,467.23
963.263,465.802
963.434,464.381
963.605,462.964
963.776,461.575
963.947,460.18
964.118,458.802
964.289,457.331
964.46,455.967
964.631,454.498
964.802,453.134
964.973,451.744
965.144,450.41
965.315,448.975
965.485,447.547
965.656,446.221
965.827,444.91
965.998,443.466
966.169,442.126
966.339,440.689
966.51,439.326
966.681,437.908
966.851,436.647
967.022,435.269
967.193,433.933
967.363,432.608
967.534,431.281
967.705,429.96
967.875,428.65
968.046,427.312
968.216,425.896
968.387,424.541
968.557,423.227
968.728,421.87
968.898,420.523
969.069,419.201
969.239,417.857
969.41,416.492
969.58,415.235
969.751,413.885
969.921,412.604
970.091,411.323
970.262,410.081
970.432,408.726
970.602,407.521
970.773,406.27
970.943,404.921
971.113,403.662
971.283,402.317
971.454,401.062
971.624,399.846
971.794,398.451
971.964,397.31
972.134,395.995
972.305,394.799
972.475,393.471
972.645,392.278
972.815,390.956
972.985,389.761
973.155,388.494
973.325,387.301
973.495,386.002
973.665,384.8
973.835,383.545
974.005,382.363
974.175,381.227
974.345,379.958
974.515,378.7
974.685,377.39
974.855,376.123
975.024,374.914
975.194,373.759
975.364,372.509
975.534,371.314
975.704,370.034
975.874,368.778
976.043,367.531
976.213,366.363
976.383,365.22
976.553,364.102
976.722,362.856
976.892,361.661
977.062,360.518
977.231,359.256
977.401,358.082
977.57,356.843
977.74,355.685
977.91,354.361
978.079,353.211
978.249,352.024
978.418,350.923
978.588,349.779
978.757,348.636
978.927,347.438
979.096,346.379
979.266,345.131
979.435,343.934
979.604,342.75
979.774,341.636
979.943,340.444
980.113,339.348
980.282,338.119
980.451,336.967
980.621,335.856
980.79,334.813
980.959,333.679
981.128,332.619
981.298,331.495
981.467,330.515
981.636,329.465
981.805,328.344
981.974,327.218
982.143,326.14
982.313,325.063
982.482,323.969
982.651,322.916
982.82,321.795
982.989,320.677
983.158,319.571
983.327,318.519
983.496,317.446
983.665,316.397
983.834,315.329
984.003,314.391
984.172,313.336
984.341,312.284
984.51,311.117
984.679,310.056
984.847,309.143
985.016,308.106
985.185,306.988
985.354,305.918
985.523,304.908
985.692,303.796
985.86,302.862
986.029,301.899
986.198,300.877
986.366,299.912
986.535,298.88
986.704,297.813
986.873,296.744
987.041,295.718
987.21,294.724
987.378,293.692
987.547,292.706
987.716,291.68
987.884,290.681
988.053,289.779
988.221,288.715
988.39,287.622
988.558,286.609
988.727,285.489
988.895,284.521
989.064,283.555
989.232,282.475
989.4,281.394
989.569,280.399
989.737,279.461
989.905,278.442
990.074,277.474
990.242,276.413
990.41,275.44
990.579,274.502
990.747,273.515
990.915,272.595
991.083,271.672
991.252,270.818
991.42,269.805
991.588,268.712
991.756,267.856
991.924,266.901
992.092,265.819
992.261,264.901
992.429,263.88
992.597,262.919
992.765,261.953
992.933,260.998
993.101,259.966
993.269,258.999
993.437,258.099
993.605,257.077
993.773,256.089
993.941,255.155
994.109,254.155
994.277,253.328
994.444,252.465
994.612,251.391
994.78,250.387
994.948,249.486
995.116,248.588
995.284,247.677
995.451,246.662
995.619,245.743
995.787,244.792
995.955,243.886
996.122,242.944
996.29,242.041
996.458,241.121
996.625,240.179
996.793,239.262
996.961,238.337
997.128,237.426
997.296,236.407
997.463,235.486
997.631,234.692
997.798,233.784
997.966,232.825
998.133,231.889
998.301,230.995
998.468,230.01
998.636,229.125
998.803,228.166
998.971,227.288
999.138,226.358
999.305,225.485
999.473,224.591
999.64,223.726
999.807,222.865
999.975,222.067
1000.14,221.163
1000.31,220.351
1000.48,219.432
1000.64,218.602
1000.81,217.677
1000.98,216.728
1001.15,215.777
1001.31,214.902
1001.48,213.903
1001.65,213.032
1001.81,212.162
1001.98,211.294
1002.15,210.507
1002.32,209.615
1002.48,208.715
1002.65,207.957
1002.82,207.12
1002.98,206.253
1003.15,205.428
1003.32,204.654
1003.48,203.704
1003.65,202.908
1003.82,202.054
1003.98,201.229
1004.15,200.409
1004.32,199.654
1004.49,198.823
1004.65,197.961
1004.82,197.202
1004.99,196.405
1005.15,195.637
1005.32,194.745
1005.49,193.894
1005.65,193.134
1005.82,192.164
1005.99,191.375
1006.15,190.538
1006.32,189.823
1006.49,188.965
1006.65,188.193
1006.82,187.356
1006.99,186.565
1007.15,185.731
1007.32,184.966
1007.49,184.096
1007.65,183.327
1007.82,182.441
1007.98,181.728
1008.15,180.93
1008.32,180.093
1008.48,179.283
1008.65,178.495
1008.82,177.807
1008.98,177.012
1009.15,176.276
1009.32,175.384
1009.48,174.513
1009.65,173.751
1009.81,173.041
1009.98,172.286
1010.15,171.551
1010.31,170.72
1010.48,170.003
1010.65,169.321
1010.81,168.417
1010.98,167.752
1011.14,167.064
1011.31,166.271
1011.48,165.48
1011.64,164.796
1011.81,164.094
1011.97,163.341
1012.14,162.656
1012.31,161.791
1012.47,160.979
1012.64,160.233
1012.8,159.486
1012.97,158.821
1013.14,158.057
1013.3,157.415
1013.47,156.59
1013.63,155.926
1013.8,155.233
1013.97,154.557
1014.13,153.87
1014.3,153.111
1014.46,152.292
1014.63,151.589
1014.79,150.934
1014.96,150.214
1015.13,149.376
1015.29,148.618
1015.46,147.808
1015.62,147.135
1015.79,146.342
1015.95,145.7
1016.12,145.001
1016.29,144.277
1016.45,143.579
1016.62,142.88
1016.78,142.14
1016.95,141.469
1017.11,140.795
1017.28,140.126
1017.44,139.468
1017.61,138.767
1017.78,138.067
1017.94,137.327
1018.11,136.613
1018.27,135.971
1018.44,135.29
1018.6,134.665
1018.77,134.085
1018.93,133.411
1019.1,132.715
1019.26,132
1019.43,131.252
1019.59,130.572
1019.76,129.993
1019.92,129.385
1020.09,128.764
1020.25,128.087
1020.42,127.405
1020.59,126.684
1020.75,126.002
1020.92,125.439
1021.08,124.741
1021.25,124.071
1021.41,123.409
1021.58,122.765
1021.74,122.186
1021.91,121.524
1022.07,120.874
1022.24,120.25
1022.4,119.61
1022.57,118.99
1022.73,118.39
1022.89,117.808
1023.06,117.118
1023.22,116.553
1023.39,116.005
1023.55,115.399
1023.72,114.808
1023.88,114.154
1024.05,113.597
1024.21,113.067
1024.38,112.422
1024.54,111.769
1024.71,111.085
1024.87,110.486
1025.04,110.017
1025.2,109.361
1025.37,108.762
1025.53,108.205
1025.7,107.649
1025.86,107.046
1026.02,106.461
1026.19,105.887
1026.35,105.35
1026.52,104.784
1026.68,104.24
1026.85,103.592
1027.01,103.062
1027.18,102.511
1027.34,101.948
1027.5,111.058
1027.67,111.14
1027.83,83.0827
1028,91.848
1028.16,93.2816
1028.33,101.514
1028.49,96.0668
1028.65,110.771
1028.82,77.2664
1028.98,94.7151
1029.15,81.8539
1029.31,102.866
1029.48,99.1388
1029.64,84.0657
1029.8,101.596
1029.97,78.2085
1030.13,100.613
1030.3,87.793
1030.46,94.1008
1030.62,86.0318
1030.79,70.3853
1030.95,81.5262
1031.12,89.6771
1031.28,101.187
1031.44,74.5222
1031.61,72.2694
1031.77,78.8229
1031.94,72.0646
1032.1,87.7111
1032.26,72.1056
1032.43,95.1657
1032.59,89.3495
1032.76,77.9628
1032.92,79.765
1033.08,81.6901
1033.25,63.5451
1033.41,88.9399
1033.57,84.4753
1033.74,74.1535
1033.9,79.0687
1034.07,80.0926
1034.23,71.1635
1034.39,65.3473
1034.56,68.2963
1034.72,74.9318
1034.88,84.2295
1035.05,87.4653
1035.21,79.3554
1035.37,84.4343
1035.54,67.9687
1035.7,58.5071
1035.86,73.7439
1036.03,78.4133
1036.19,76.734
1036.35,78.741
1036.52,84.3524
1036.68,62.3572
1036.84,63.8318
1037.01,65.2244
1037.17,64.4052
1037.33,81.5672
1037.5,62.8487
1037.66,55.517
1037.82,65.634
1037.99,78.6181
1038.15,77.2664
1038.31,56.541
1038.48,69.2384
1038.64,59.9816
1038.8,73.0886
1038.97,62.8897
1039.13,56.6229
1039.29,62.644
1039.46,57.7698
1039.62,71.9417
1039.78,69.8938
1039.95,66.4532
1040.11,59.531
1040.27,55.8447
1040.43,74.8498
1040.6,64.0775
1040.76,53.7967
1040.92,54.9026
1041.09,59.1624
1041.25,56.4181
1041.41,72.0236
1041.57,56.7458
1041.74,68.2554
1041.9,54.4521
1042.06,65.7569
1042.23,47.8986
1042.39,63.1355
1042.55,62.2753
1042.71,61.9476
1042.88,55.2713
1043.04,60.2683
1043.2,49.2093
1043.36,50.52
1043.53,54.7388
1043.69,55.1893
EndSpectrumFile,DIFF DATA
