SpectrumFile,BASELINE
Version,1.000000
Location,
Customer,
SampleInfo,
GPSData,51.118460,-114.185340,1173.000000,8269,230311
SystemTime,2011,3,23,2,29,14,311
Pipe km,0.000000
Pre-Dilution Factor,1.000000
Freeform Info,
Concentration,0.000000
CalibrationName,USB4000 dark
Unique Calibration File ID,20110323-0226570968-TESTBOX2-7E963C-00008931
CalibrationWavelength,700.000000
CalibrationType,2,0.000000,0.616679
CalibrationRSquared,1.000000
CalibrationConcentrations [ppm],2,0.000000,10.000000
CalibrationCounts,2,0.000000,16.215900
CalibrationWarnLow,0.000000
CalibrationWarnHigh,10.000000
CalibrationErrorLow,0.000000
CalibrationErrorHigh,0.000000
Spectrometer Name,USB4000
Spectrometer Serial,USB4H02759
IntegrationTime [ms],50.000000
AveragedSpectra,50
BoxcarWidth,100
WavelengthRange [nm],346.775360,1043.690197
IntensityRange [counts],-13.386206,139.760897
WavelengthCount,3648
Wavelength [nm],Intensity [counts]
346.775,-10.0685
346.991,-10.0685
347.206,-10.0685
347.421,-9.12643
347.637,-13.3862
347.852,95.8524
348.067,90.0772
348.282,97.4089
348.498,97.2041
348.713,87.21
348.928,106.584
349.143,104.618
349.358,68.7373
349.574,80.7794
349.789,78.8133
350.004,121.411
350.219,82.7864
350.434,94.8694
350.649,90.7325
350.864,89.1761
351.079,91.5517
351.295,119.363
351.51,82.9912
351.725,87.9882
351.94,67.6724
352.155,79.7554
352.37,96.9993
352.585,93.5997
352.8,113.629
353.015,63.9041
353.23,105.478
353.445,74.5126
353.66,91.3879
353.875,98.5148
354.09,106.42
354.305,74.144
354.52,95.6886
354.735,75.9871
354.949,106.625
355.164,110.147
355.379,79.0181
355.594,102.037
355.809,109.41
356.024,101.464
356.239,100.563
356.453,105.396
356.668,88.6846
356.883,99.9893
357.098,112.236
357.313,88.7665
357.527,109.287
357.742,83.155
357.957,85.4078
358.172,91.7975
358.386,94.7875
358.601,90.5687
358.816,115.923
359.03,70.6624
359.245,94.1731
359.46,106.133
359.674,98.7606
359.889,71.9322
360.104,114.079
360.318,99.8255
360.533,102.693
360.748,80.0012
360.962,93.1491
361.177,88.7255
361.391,109.574
361.606,82.5406
361.82,98.9244
362.035,99.8665
362.25,76.11
362.464,100.317
362.679,126.244
362.893,89.8314
363.108,101.546
363.322,106.256
363.536,92.8624
363.751,94.6237
363.965,85.244
364.18,91.4288
364.394,100.931
364.609,82.7045
364.823,91.1831
365.037,105.806
365.252,86.186
365.466,80.8204
365.68,95.0742
365.895,87.8654
366.109,99.4569
366.323,92.9443
366.538,96.9993
366.752,73.4067
366.966,82.213
367.181,81.148
367.395,83.8513
367.609,79.1001
367.823,110.106
368.038,109.041
368.252,92.4732
368.466,92.9515
368.68,93.5216
368.894,93.9516
369.109,94.4187
369.323,95.0324
369.537,94.9864
369.751,94.9748
369.965,95.0055
370.179,94.9546
370.393,94.997
370.607,94.9035
370.822,94.9837
371.036,95.1708
371.25,95.1969
371.464,95.2423
371.678,95.14
371.892,95.1918
372.106,95.1268
372.32,95.3518
372.534,95.3607
372.748,95.4592
372.962,95.3856
373.176,95.4286
373.39,95.5056
373.604,95.6819
373.818,95.741
374.031,95.6668
374.245,95.7049
374.459,95.6509
374.673,95.7308
374.887,95.751
375.101,95.8836
375.315,95.9743
375.529,95.9725
375.742,95.8694
375.956,95.8708
376.17,95.8217
376.384,95.9028
376.598,95.8125
376.811,95.7508
377.025,95.9429
377.239,96.0466
377.453,96.065
377.666,96.086
377.88,96.0126
378.094,96.218
378.307,96.2563
378.521,96.2985
378.735,96.1326
378.948,96.2025
379.162,96.163
379.376,96.2168
379.589,96.3823
379.803,96.3662
380.016,96.2553
380.23,96.4173
380.444,96.337
380.657,96.4552
380.871,96.4923
381.084,96.4357
381.298,96.3116
381.511,96.2857
381.725,96.3676
381.938,96.4546
382.152,96.3546
382.365,96.4224
382.579,96.4212
382.792,96.4497
383.006,96.3101
383.219,96.3912
383.433,96.3931
383.646,96.3978
383.859,96.4065
384.073,96.4312
384.286,96.1913
384.5,96.1871
384.713,96.1787
384.926,96.1587
385.14,96.3238
385.353,96.2847
385.566,96.3454
385.779,96.3513
385.993,96.3077
386.206,96.4118
386.419,96.344
386.633,96.2519
386.846,96.4096
387.059,96.4935
387.272,96.4569
387.485,96.5777
387.699,96.4966
387.912,96.6225
388.125,96.618
388.338,96.834
388.551,96.9673
388.764,97.0013
388.978,97.0415
389.191,97.0472
389.404,97.0602
389.617,96.9514
389.83,96.8198
390.043,96.8495
390.256,96.7513
390.469,96.9257
390.682,96.811
390.895,96.7703
391.108,96.571
391.321,96.4962
391.534,96.2588
391.747,96.2847
391.96,95.9425
392.173,96.022
392.386,96.2009
392.599,96.2504
392.812,96.4536
393.025,96.5082
393.238,96.4397
393.451,96.454
393.663,96.3427
393.876,96.551
394.089,96.3813
394.302,96.5687
394.515,96.5441
394.728,96.4752
394.941,96.4785
395.153,96.355
395.366,96.3136
395.579,96.3672
395.792,96.1681
396.004,96.272
396.217,96.2928
396.43,96.3762
396.643,96.4921
396.855,96.3647
397.068,96.4831
397.281,96.4273
397.493,96.3289
397.706,96.279
397.919,96.2298
398.131,96.3132
398.344,96.2757
398.557,96.1999
398.769,95.9146
398.982,95.991
399.194,95.9427
399.407,96.0703
399.619,96.1744
399.832,96.2068
400.045,96.2474
400.257,96.5465
400.47,96.5744
400.682,96.7511
400.895,96.8218
401.107,96.7937
401.319,96.8369
401.532,96.776
401.744,96.7727
401.957,96.7764
402.169,96.5347
402.382,96.6099
402.594,96.661
402.806,96.7986
403.019,96.9378
403.231,96.8294
403.444,96.7273
403.656,96.6918
403.868,96.8096
404.081,96.9402
404.293,97.0144
404.505,96.8868
404.717,96.7468
404.93,96.8603
405.142,96.7375
405.354,96.8312
405.566,96.8872
405.779,96.9025
405.991,96.8467
406.203,96.8728
406.415,96.8092
406.627,96.7609
406.84,96.7574
407.052,96.9867
407.264,96.7283
407.476,96.7016
407.688,96.8722
407.9,96.8654
408.112,96.9993
408.324,97.1727
408.537,97.1397
408.749,97.391
408.961,97.447
409.173,97.5043
409.385,97.4026
409.597,97.1591
409.809,97.1057
410.021,97.1267
410.233,97.1752
410.445,97.0749
410.657,97.2899
410.869,97.3871
411.081,97.3977
411.292,97.5454
411.504,97.5683
411.716,97.759
411.928,97.8173
412.14,97.8171
412.352,97.8415
412.564,97.88
412.776,97.8749
412.988,97.9591
413.199,97.8444
413.411,97.8499
413.623,97.728
413.835,97.673
414.047,97.7199
414.258,97.877
414.47,97.9027
414.682,97.7649
414.894,97.8063
415.105,97.5815
415.317,97.5204
415.529,97.4576
415.74,97.3518
415.952,97.4285
416.164,97.3592
416.375,97.3178
416.587,97.3608
416.799,97.4303
417.01,97.36
417.222,97.3749
417.433,97.5202
417.645,97.382
417.857,97.3164
418.068,97.2078
418.28,97.1982
418.491,97.2571
418.703,97.4226
418.914,97.5377
419.126,97.6418
419.337,97.7119
419.549,97.589
419.76,97.4224
419.972,97.3229
420.183,97.3268
420.394,97.2235
420.606,97.2335
420.817,96.9679
421.029,96.9119
421.24,96.8267
421.451,96.8609
421.663,96.9129
421.874,96.9924
422.085,96.917
422.297,96.7313
422.508,96.7796
422.719,97.0725
422.931,96.9337
423.142,96.9793
423.353,96.9891
423.565,97.0452
423.776,97.0073
423.987,97.2518
424.198,97.336
424.409,97.1091
424.621,97.093
424.832,97.1742
425.043,97.1564
425.254,97.2606
425.465,97.219
425.676,97.3773
425.888,97.4739
426.099,97.4089
426.31,97.3635
426.521,97.4024
426.732,97.3571
426.943,97.4205
427.154,97.456
427.365,97.3628
427.576,97.3133
427.787,97.1132
427.998,97.0321
428.209,97.0382
428.42,97.1065
428.631,97.1878
428.842,97.0784
429.053,97.0193
429.264,97.1122
429.475,97.0344
429.686,97.0215
429.897,97.058
430.108,96.9512
430.319,97.1725
430.529,97.0405
430.74,97.0172
430.951,97.0472
431.162,96.971
431.373,96.9606
431.584,97.0849
431.794,97.1972
432.005,97.1199
432.216,97.153
432.427,97.1464
432.637,97.2121
432.848,97.4272
433.059,97.2483
433.27,97.1061
433.48,97.2911
433.691,97.4407
433.902,97.6229
434.112,97.6111
434.323,97.5731
434.534,97.7602
434.744,97.7784
434.955,97.5603
435.166,97.4268
435.376,97.359
435.587,97.4631
435.797,97.4458
436.008,97.2891
436.218,97.545
436.429,97.4949
436.64,97.5803
436.85,97.4028
437.061,97.3957
437.271,97.5878
437.482,97.5575
437.692,97.7341
437.902,97.6687
438.113,97.6123
438.323,97.6461
438.534,97.4986
438.744,97.3806
438.955,97.4633
439.165,97.4594
439.375,97.3423
439.586,97.1334
439.796,97.155
440.006,97.1528
440.217,97.2791
440.427,97.3233
440.637,97.2302
440.848,97.0867
441.058,97.0935
441.268,97.1976
441.479,97.1485
441.689,97.2229
441.899,97.2813
442.109,97.1534
442.319,97.2424
442.53,97.1746
442.74,96.9924
442.95,97.1104
443.16,97.0028
443.37,97.1301
443.58,97.0505
443.791,97.1923
444.001,97.132
444.211,97.1114
444.421,97.1792
444.631,97.4213
444.841,97.5106
445.051,97.3967
445.261,97.2742
445.471,97.1921
445.681,97.3182
445.891,97.3963
446.101,97.424
446.311,97.4154
446.521,97.2373
446.731,97.1827
446.941,97.3003
447.151,97.5432
447.361,97.4215
447.571,97.3457
447.781,97.4289
447.991,97.3973
448.201,97.4217
448.41,97.7036
448.62,97.7034
448.83,97.7857
449.04,97.694
449.25,97.8018
449.46,97.7486
449.669,97.7688
449.879,97.738
450.089,97.5862
450.299,97.7539
450.508,97.6779
450.718,97.6622
450.928,97.5065
451.138,97.4482
451.347,97.5945
451.557,97.6769
451.767,97.7323
451.976,97.8395
452.186,97.9538
452.396,97.7816
452.605,97.6956
452.815,97.8356
453.025,97.6744
453.234,97.7138
453.444,97.694
453.653,97.6157
453.863,97.4688
454.072,97.3343
454.282,97.3231
454.491,97.201
454.701,97.2467
454.911,97.2235
455.12,97.2027
455.329,97.1517
455.539,97.2944
455.748,97.2716
455.958,97.2212
456.167,97.2491
456.377,97.336
456.586,97.1811
456.795,97.1106
457.005,97.1805
457.214,97.3011
457.424,97.306
457.633,97.3987
457.842,97.4162
458.052,97.5018
458.261,97.3981
458.47,97.3836
458.679,97.3761
458.889,97.2864
459.098,97.2754
459.307,97.3217
459.517,97.239
459.726,97.1544
459.935,97.218
460.144,97.2343
460.353,97.2033
460.563,97.2652
460.772,97.233
460.981,97.2567
461.19,97.2532
461.399,97.1882
461.608,97.1452
461.817,97.3474
462.026,97.4888
462.236,97.491
462.445,97.4346
462.654,97.5636
462.863,97.6532
463.072,97.7274
463.281,97.7354
463.49,97.7009
463.699,97.7708
463.908,97.8042
464.117,97.6011
464.326,97.683
464.535,97.8648
464.744,97.9006
464.952,97.6286
465.161,97.556
465.37,97.4843
465.579,97.4411
465.788,97.306
465.997,97.4423
466.206,97.3321
466.415,97.3728
466.623,97.4456
466.832,97.3502
467.041,97.426
467.25,97.4827
467.459,97.3571
467.667,97.3971
467.876,97.4484
468.085,97.4344
468.294,97.391
468.502,97.4136
468.711,97.5697
468.92,97.5738
469.128,97.6616
469.337,97.5954
469.546,97.6227
469.754,97.7058
469.963,97.8152
470.172,98.0622
470.38,98.0528
470.589,97.9122
470.798,97.8959
471.006,97.8535
471.215,97.9579
471.423,97.9463
471.632,97.9157
471.84,97.8898
472.049,97.963
472.257,97.9662
472.466,97.8535
472.674,97.8719
472.883,97.901
473.091,97.7453
473.3,97.7629
473.508,97.7902
473.716,97.8136
473.925,97.7979
474.133,97.8324
474.342,97.8525
474.55,97.8513
474.758,97.9766
474.967,97.7523
475.175,97.9306
475.383,98.1401
475.592,98.0213
475.8,97.8197
476.008,97.7311
476.217,97.7158
476.425,97.8313
476.633,97.6449
476.841,97.5222
477.05,97.5212
477.258,97.6968
477.466,97.5846
477.674,97.352
477.882,97.4596
478.091,97.4878
478.299,97.4065
478.507,97.3443
478.715,97.4817
478.923,97.3875
479.131,97.5251
479.339,97.4193
479.547,97.5599
479.755,97.5438
479.963,97.6072
480.171,97.696
480.38,97.6781
480.588,97.823
480.796,97.8495
481.004,97.608
481.212,97.5269
481.42,97.6889
481.627,97.8723
481.835,97.9257
482.043,97.9324
482.251,97.9022
482.459,97.8454
482.667,97.8138
482.875,97.8207
483.083,98.0496
483.291,98.0096
483.499,98.0583
483.706,98.0001
483.914,97.9377
484.122,97.8859
484.33,97.8862
484.538,97.9823
484.745,97.9887
484.953,97.8283
485.161,97.7144
485.369,97.6895
485.576,97.9752
485.784,97.8637
485.992,97.986
486.199,97.9882
486.407,97.9738
486.615,97.8978
486.822,97.7993
487.03,97.8658
487.238,97.8652
487.445,97.768
487.653,97.7453
487.861,97.8256
488.068,97.6834
488.276,97.6237
488.483,97.728
488.691,97.7908
488.898,97.8317
489.106,97.6498
489.313,97.7561
489.521,97.8731
489.728,97.7549
489.936,97.748
490.143,97.7533
490.351,97.6406
490.558,97.7223
490.766,97.5499
490.973,97.6318
491.18,97.4517
491.388,97.3781
491.595,97.4399
491.802,97.5676
492.01,97.6237
492.217,97.5079
492.424,97.5911
492.632,97.6216
492.839,97.8845
493.046,97.8778
493.254,97.801
493.461,97.6879
493.668,97.7582
493.875,97.8951
494.083,97.6435
494.29,97.7651
494.497,97.8902
494.704,97.8232
494.911,97.8595
495.119,97.7971
495.326,97.866
495.533,97.9025
495.74,97.9393
495.947,97.9615
496.154,97.9204
496.361,97.8456
496.568,97.6318
496.775,97.5487
496.982,97.456
497.19,97.5524
497.397,97.5257
497.604,97.6082
497.811,97.6659
498.018,97.8167
498.225,97.8273
498.432,97.8688
498.638,97.8297
498.845,98.0838
499.052,98.0027
499.259,97.9791
499.466,97.9671
499.673,97.8607
499.88,97.9734
500.087,97.9801
500.294,98.072
500.501,98.0616
500.707,98.1013
500.914,98.0716
501.121,98.1111
501.328,98.0496
501.535,98.2134
501.741,98.4119
501.948,98.3681
502.155,98.5124
502.362,98.405
502.568,98.4268
502.775,98.4987
502.982,98.506
503.188,98.4498
503.395,98.4531
503.602,98.192
503.808,98.0355
504.015,98.0074
504.222,97.9216
504.428,97.8493
504.635,98.0031
504.841,97.8446
505.048,97.9167
505.254,97.9463
505.461,98.0604
505.668,97.9112
505.874,98.0486
506.081,98.1737
506.287,97.902
506.494,97.782
506.7,97.9202
506.907,98.1119
507.113,98.1645
507.319,98.215
507.526,98.3599
507.732,98.4335
507.939,98.4806
508.145,98.4359
508.351,98.3834
508.558,98.3231
508.764,98.2307
508.97,98.0706
509.177,98.1301
509.383,98.1319
509.589,98.0406
509.796,97.8588
510.002,98.0372
510.208,97.9542
510.414,97.791
510.621,97.7786
510.827,97.714
511.033,97.7963
511.239,97.826
511.445,97.7427
511.652,97.6534
511.858,97.6245
512.064,97.6304
512.27,97.6944
512.476,97.5895
512.682,97.739
512.888,97.7404
513.095,97.6653
513.301,97.674
513.507,97.6805
513.713,97.6318
513.919,97.6844
514.125,97.609
514.331,97.717
514.537,97.7211
514.743,97.749
514.949,97.8087
515.155,97.854
515.361,97.7419
515.567,97.7834
515.773,97.695
515.978,97.6869
516.184,97.7074
516.39,97.4764
516.596,97.4437
516.802,97.3533
517.008,97.164
517.214,97.1183
517.419,97.2703
517.625,97.2828
517.831,97.361
518.037,97.1874
518.243,97.2883
518.448,97.402
518.654,97.4656
518.86,97.4211
519.066,97.5674
519.271,97.6728
519.477,97.6135
519.683,97.6129
519.888,97.6384
520.094,97.6261
520.3,97.5088
520.505,97.6593
520.711,97.6793
520.917,97.8258
521.122,97.9008
521.328,97.8048
521.533,97.7256
521.739,97.8635
521.944,97.8731
522.15,97.8332
522.356,97.8482
522.561,97.9717
522.767,97.9139
522.972,97.7494
523.177,97.7541
523.383,97.9575
523.588,97.9787
523.794,97.8727
523.999,97.7671
524.205,97.9053
524.41,97.988
524.615,97.7808
524.821,97.8187
525.026,97.8377
525.232,97.8089
525.437,97.9012
525.642,97.9615
525.847,98.0052
526.053,97.9695
526.258,97.9538
526.463,98.027
526.669,98.103
526.874,97.954
527.079,97.7072
527.284,97.7908
527.49,97.8415
527.695,97.7162
527.9,97.6632
528.105,97.5412
528.31,97.5018
528.515,97.5124
528.721,97.5762
528.926,97.5
529.131,97.4087
529.336,97.5104
529.541,97.6561
529.746,97.6887
529.951,97.6911
530.156,97.7244
530.361,97.6269
530.566,97.66
530.771,97.6553
530.976,97.6206
531.181,97.6473
531.386,97.661
531.591,97.6125
531.796,97.6261
532.001,97.606
532.206,97.5903
532.411,97.5719
532.616,97.6563
532.821,97.5958
533.025,97.4982
533.23,97.3518
533.435,97.3374
533.64,97.2339
533.845,97.1387
534.05,97.1487
534.254,97.036
534.459,96.9563
534.664,96.8801
534.869,97.0647
535.073,96.9789
535.278,96.8145
535.483,96.8381
535.688,96.7556
535.892,96.7273
536.097,96.6753
536.302,96.5076
536.506,96.6352
536.711,96.6297
536.916,96.5331
537.12,96.5331
537.325,96.6629
537.529,96.7024
537.734,96.668
537.938,97.1815
538.143,97.3914
538.348,97.4764
538.552,97.2968
538.757,97.3932
538.961,97.5336
539.166,97.5381
539.37,97.535
539.575,97.4374
539.779,97.401
539.983,97.5365
540.188,97.3959
540.392,97.2921
540.597,97.3861
540.801,97.3449
541.005,97.305
541.21,97.1517
541.414,97.1693
541.618,97.134
541.823,97.1041
542.027,97.0749
542.231,97.1666
542.436,97.0788
542.64,97.1902
542.844,96.9818
543.048,96.8228
543.253,96.8605
543.457,96.7244
543.661,96.6464
543.865,96.636
544.069,96.4499
544.274,96.4552
544.478,96.3904
544.682,96.4471
544.886,96.5182
545.09,96.6751
545.294,96.6417
545.498,96.7682
545.702,96.7474
545.907,96.4884
546.111,96.5412
546.315,96.5119
546.519,96.5443
546.723,96.3853
546.927,96.488
547.131,96.5282
547.335,96.4173
547.539,96.637
547.743,96.7466
547.947,96.7998
548.15,96.6227
548.354,96.5893
548.558,96.6317
548.762,96.5408
548.966,96.3448
549.17,96.2999
549.374,96.2529
549.578,96.173
549.781,96.2447
549.985,96.2408
550.189,96.4534
550.393,96.5367
550.597,96.4774
550.8,96.3847
551.004,96.4316
551.208,96.5355
551.412,96.5993
551.615,96.6121
551.819,96.66
552.023,96.6855
552.226,96.5779
552.43,96.5049
552.634,96.3419
552.837,96.4216
553.041,96.3162
553.244,96.2376
553.448,96.3401
553.652,96.4259
553.855,96.3305
554.059,96.4587
554.262,96.4465
554.466,96.4365
554.669,96.4467
554.873,96.4842
555.076,96.5288
555.28,96.5017
555.483,96.4
555.687,96.3344
555.89,96.2339
556.094,96.0544
556.297,96.0399
556.5,95.9904
556.704,95.8119
556.907,95.8209
557.111,95.7561
557.314,95.6165
557.517,95.7689
557.721,95.8035
557.924,95.8857
558.127,95.819
558.33,95.8166
558.534,95.7732
558.737,95.709
558.94,95.5005
559.144,95.5619
559.347,95.5621
559.55,95.4392
559.753,95.399
559.956,95.2588
560.159,95.1938
560.363,95.3304
560.566,95.2705
560.769,95.2625
560.972,95.1447
561.175,95.1692
561.378,95.2336
561.581,95.051
561.784,95.0184
561.987,94.9083
562.19,94.6614
562.394,94.6624
562.597,94.9228
562.8,94.7669
563.003,94.7064
563.205,94.6068
563.408,94.6237
563.611,94.6176
563.814,94.7164
564.017,94.9041
564.22,94.7555
564.423,94.544
564.626,94.5322
564.829,94.6231
565.032,94.7441
565.235,94.597
565.437,94.5493
565.64,94.4965
565.843,94.6365
566.046,94.5929
566.249,94.5927
566.451,94.3742
566.654,94.4093
566.857,94.4468
567.06,94.3767
567.262,94.4916
567.465,94.6909
567.668,94.6995
567.87,94.6125
568.073,94.5601
568.276,94.4841
568.478,94.4468
568.681,94.5193
568.884,94.4517
569.086,94.5772
569.289,94.5733
569.491,94.6017
569.694,94.553
569.896,94.6447
570.099,94.8028
570.301,94.6155
570.504,94.5314
570.706,94.4032
570.909,94.3467
571.111,94.2825
571.314,94.4611
571.516,94.4617
571.719,94.4735
571.921,94.4509
572.124,94.4111
572.326,94.3074
572.528,94.3555
572.731,94.3677
572.933,94.3946
573.135,94.5148
573.338,94.4822
573.54,94.3547
573.742,94.2956
573.945,94.4488
574.147,94.4894
574.349,94.4763
574.551,94.4576
574.754,94.5259
574.956,94.6035
575.158,94.4498
575.36,94.676
575.562,94.7239
575.765,94.4647
575.967,94.446
576.169,94.6683
576.371,94.6453
576.573,94.77
576.775,94.5786
576.977,94.5605
577.179,94.6504
577.382,94.5051
577.584,94.5878
577.786,94.5998
577.988,94.7547
578.19,94.5841
578.392,94.6292
578.594,94.7694
578.796,94.4771
578.998,94.3724
579.2,94.2214
579.401,94.3351
579.603,94.328
579.805,94.2271
580.007,94.1134
580.209,93.8491
580.411,93.8931
580.613,93.9412
580.815,93.9496
581.016,93.9188
581.218,94.0486
581.42,94.003
581.622,94.0702
581.824,94.2261
582.025,94.4478
582.227,94.5511
582.429,94.4765
582.631,94.3938
582.832,94.4286
583.034,94.459
583.236,94.4704
583.437,94.4272
583.639,94.5275
583.841,94.5275
584.042,94.5631
584.244,94.6155
584.446,94.7608
584.647,94.8181
584.849,94.749
585.05,94.6318
585.252,94.6555
585.453,94.6616
585.655,94.7451
585.856,94.6428
586.058,94.6261
586.259,94.6428
586.461,94.5674
586.662,94.7088
586.864,94.7223
587.065,94.8708
587.267,94.8331
587.468,94.9636
587.67,95.1105
587.871,95.0528
588.072,94.999
588.274,95.0467
588.475,95.1659
588.676,95.065
588.878,95.0555
589.079,95.1559
589.28,95.1243
589.481,95.1007
589.683,94.9974
589.884,94.9821
590.085,95.1011
590.286,95.2916
590.488,95.2405
590.689,95.2321
590.89,95.1156
591.091,94.9782
591.292,94.9811
591.494,95.0021
591.695,95.0208
591.896,94.9766
592.097,94.9575
592.298,94.9138
592.499,94.9149
592.7,94.9748
592.901,95.065
593.102,95.2334
593.303,95.442
593.504,95.3935
593.705,95.5042
593.906,95.5773
594.107,95.6572
594.308,95.5421
594.509,95.5068
594.71,95.3805
594.911,95.4859
595.112,95.45
595.313,95.4563
595.514,95.5097
595.715,95.462
595.915,95.5348
596.116,95.5674
596.317,95.7691
596.518,95.938
596.719,96.0469
596.92,96.1418
597.12,96.2109
597.321,96.3289
597.522,96.4854
597.723,96.5483
597.923,96.736
598.124,96.5899
598.325,96.7591
598.525,96.5428
598.726,96.6832
598.927,96.7438
599.127,96.8245
599.328,97.0109
599.529,97.1177
599.729,96.9812
599.93,97.0955
600.13,97.0939
600.331,97.0712
600.531,97.122
600.732,97.1784
600.933,97.0262
601.133,97.1206
601.334,97.1876
601.534,97.1725
601.734,97.091
601.935,97.0543
602.135,97.0562
602.336,96.9901
602.536,97.0007
602.737,97.0916
602.937,97.1093
603.137,96.8811
603.338,96.7727
603.538,96.7499
603.738,96.8336
603.939,96.9514
604.139,96.8726
604.339,96.8599
604.54,96.7813
604.74,96.951
604.94,97.0672
605.14,97.0641
605.341,96.9979
605.541,97.0215
605.741,96.9514
605.941,96.7927
606.141,96.8618
606.342,96.7656
606.542,96.8071
606.742,96.6924
606.942,96.7937
607.142,96.8522
607.342,96.9107
607.542,96.9182
607.742,96.7882
607.942,96.5545
608.142,96.5371
608.343,96.7079
608.543,96.7931
608.743,96.7805
608.943,96.6545
609.143,96.615
609.342,96.7036
609.542,96.6741
609.742,96.766
609.942,96.7615
610.142,96.6806
610.342,96.7254
610.542,96.5339
610.742,96.6975
610.942,96.7018
611.142,96.8632
611.341,96.9172
611.541,96.8587
611.741,96.575
611.941,96.5575
612.141,96.5343
612.34,96.5137
612.54,96.5202
612.74,96.7059
612.94,96.5936
613.139,96.6156
613.339,96.5031
613.539,96.5178
613.738,96.4316
613.938,96.5054
614.138,96.5661
614.337,96.3776
614.537,96.3753
614.736,96.2512
614.936,96.4079
615.136,96.3136
615.335,96.1724
615.535,96.2068
615.734,96.195
615.934,96.2557
616.133,96.2565
616.333,96.4556
616.532,96.4357
616.732,96.6207
616.931,96.5233
617.131,96.8424
617.33,96.9325
617.529,96.995
617.729,96.9392
617.928,96.8917
618.128,96.883
618.327,96.7136
618.526,96.6596
618.726,96.6896
618.925,96.6733
619.124,96.7018
619.324,96.7487
619.523,96.8459
619.722,96.8938
619.921,96.9469
620.121,96.8756
620.32,97.0064
620.519,97.0661
620.718,97.0733
620.917,97.0211
621.117,96.9706
621.316,96.9891
621.515,96.9649
621.714,97.0794
621.913,96.9724
622.112,97.0827
622.311,96.8646
622.51,96.8654
622.709,96.853
622.909,97.0541
623.108,97.175
623.307,96.9712
623.506,97.0661
623.705,97.1393
623.904,97.046
624.103,96.9459
624.301,96.9266
624.5,96.9944
624.699,97.0957
624.898,97.0401
625.097,97.1668
625.296,97.2112
625.495,97.2791
625.694,97.1611
625.893,97.229
626.091,97.283
626.29,97.4448
626.489,97.2756
626.688,97.369
626.887,97.2447
627.085,97.2518
627.284,96.992
627.483,97.0468
627.682,96.9046
627.88,96.5647
628.079,96.5516
628.278,96.628
628.476,96.5098
628.675,96.3847
628.874,96.411
629.072,96.3594
629.271,96.3996
629.47,96.4467
629.668,96.4785
629.867,96.5072
630.065,96.432
630.264,96.3753
630.462,96.2767
630.661,96.2798
630.859,96.3315
631.058,96.5647
631.256,96.6871
631.455,96.9989
631.653,97.134
631.852,97.1466
632.05,96.9156
632.249,96.9072
632.447,97.0229
632.645,97.1073
632.844,97.0282
633.042,97.027
633.24,97.0126
633.439,96.9905
633.637,97.0077
633.835,96.96
634.034,96.9842
634.232,96.9027
634.43,97.0637
634.628,97.2155
634.827,97.294
635.025,97.3394
635.223,97.4409
635.421,97.3072
635.62,97.1495
635.818,97.1483
636.016,97.0001
636.214,96.9435
636.412,96.7346
636.61,96.5818
636.808,96.5404
637.006,96.379
637.205,96.3421
637.403,96.4548
637.601,96.195
637.799,96.2013
637.997,96.1571
638.195,96.1534
638.393,95.8948
638.591,95.9234
638.789,95.8628
638.987,95.9421
639.184,95.8408
639.382,95.6917
639.58,95.6538
639.778,95.6146
639.976,95.4914
640.174,95.5468
640.372,95.7777
640.57,95.7642
640.767,95.74
640.965,95.623
641.163,95.5325
641.361,95.5979
641.559,95.7442
641.756,95.8492
641.954,95.7023
642.152,95.8783
642.35,95.9747
642.547,95.786
642.745,95.7428
642.943,95.8745
643.14,95.8895
643.338,95.9527
643.536,96.0968
643.733,96.0092
643.931,95.8922
644.128,95.8879
644.326,95.7883
644.524,95.7709
644.721,95.5704
644.919,95.6212
645.116,95.6383
645.314,95.5266
645.511,95.3426
645.709,95.3241
645.906,95.506
646.104,95.615
646.301,95.7324
646.498,95.5849
646.696,95.6591
646.893,95.6269
647.091,95.4522
647.288,95.2998
647.485,95.3202
647.683,95.3092
647.88,95.2943
648.077,95.3935
648.275,95.3526
648.472,95.3514
648.669,95.3175
648.867,95.3901
649.064,95.4266
649.261,95.5896
649.458,95.557
649.655,95.4891
649.853,95.4661
650.05,95.4722
650.247,95.6271
650.444,95.7874
650.641,95.654
650.838,95.762
651.036,95.7966
651.233,95.6949
651.43,95.6224
651.627,95.8088
651.824,95.7145
652.021,95.7237
652.218,95.7665
652.415,95.8237
652.612,95.6338
652.809,95.786
653.006,95.6499
653.203,95.7212
653.4,95.7347
653.597,95.8802
653.794,95.9847
653.991,96.1326
654.187,96.2569
654.384,96.1504
654.581,96.1832
654.778,96.109
654.975,96.1502
655.172,96.2231
655.369,96.1948
655.565,96.0181
655.762,95.8887
655.959,95.9325
656.156,95.7436
656.352,95.4221
656.549,95.4475
656.746,95.3781
656.943,95.1926
657.139,95.17
657.336,95.1802
657.533,95.2417
657.729,95.1543
657.926,95.1521
658.122,95.3416
658.319,95.5015
658.516,95.4836
658.712,95.5967
658.909,95.5767
659.105,95.5197
659.302,95.5773
659.498,95.603
659.695,95.4742
659.891,95.3607
660.088,95.3628
660.284,95.5107
660.481,95.55
660.677,95.6069
660.874,95.5396
661.07,95.6063
661.266,95.582
661.463,95.4457
661.659,95.3479
661.856,95.1321
662.052,95.0911
662.248,94.9534
662.444,95.0031
662.641,94.9147
662.837,94.9428
663.033,95.1243
663.23,94.9782
663.426,94.867
663.622,94.9149
663.818,94.9611
664.014,94.931
664.211,94.8653
664.407,94.8065
664.603,94.7985
664.799,94.7961
664.995,94.8525
665.191,94.7849
665.387,94.8564
665.584,94.7673
665.78,94.758
665.976,94.6157
666.172,94.6636
666.368,94.6881
666.564,94.8046
666.76,94.9299
666.956,95.0905
667.152,94.9776
667.348,95.16
667.544,95.277
667.74,95.2764
667.936,95.1627
668.131,95.0913
668.327,94.9634
668.523,95.0877
668.719,95.1889
668.915,95.0449
669.111,95.0471
669.307,95.0944
669.502,95.2906
669.698,95.3797
669.894,95.431
670.09,95.4524
670.285,95.4343
670.481,95.5097
670.677,95.3589
670.873,95.1902
671.068,94.8397
671.264,94.802
671.46,94.7624
671.655,94.6907
671.851,94.7251
672.047,94.7133
672.242,94.5399
672.438,94.5187
672.633,94.5691
672.829,94.3952
673.025,94.3302
673.22,94.2974
673.416,94.1658
673.611,94.2214
673.807,94.2135
674.002,94.026
674.198,94.0572
674.393,94.0792
674.589,93.9465
674.784,93.9005
674.979,93.9938
675.175,94.0186
675.37,93.9329
675.566,94.0537
675.761,94.0425
675.956,94.0333
676.152,94.0867
676.347,94.1866
676.542,94.3443
676.738,94.4445
676.933,94.252
677.128,94.4335
677.323,94.5483
677.519,94.4926
677.714,94.6275
677.909,94.7586
678.104,94.9509
678.299,95.0341
678.494,94.9497
678.69,94.9548
678.885,94.9617
679.08,94.9933
679.275,95.1879
679.47,95.1284
679.665,95.116
679.86,94.8437
680.055,94.7971
680.25,94.791
680.445,94.9293
680.64,95.0384
680.835,94.9077
681.03,94.8195
681.225,94.9238
681.42,95.1557
681.615,95.0009
681.81,94.923
682.005,95.1551
682.2,95.1957
682.395,95.1298
682.59,95.2517
682.785,95.356
682.979,95.2429
683.174,95.3713
683.369,95.256
683.564,95.2768
683.759,95.2301
683.953,95.3249
684.148,95.3701
684.343,95.213
684.538,95.3962
684.732,95.3326
684.927,95.5119
685.122,95.6717
685.316,95.7795
685.511,95.5731
685.706,95.5056
685.9,95.7371
686.095,95.7844
686.29,95.6617
686.484,95.8227
686.679,95.7919
686.873,95.8522
687.068,95.7844
687.262,95.8734
687.457,95.7797
687.651,95.818
687.846,95.8103
688.04,95.9926
688.235,95.9325
688.429,95.9119
688.624,95.6925
688.818,95.6146
689.013,95.5551
689.207,95.5405
689.401,95.5083
689.596,95.2831
689.79,95.3385
689.984,95.3997
690.179,95.3836
690.373,95.4007
690.567,95.3958
690.762,95.4636
690.956,95.4125
691.15,95.4398
691.344,95.2811
691.538,95.3448
691.733,95.2637
691.927,95.3878
692.121,95.258
692.315,95.3858
692.509,95.3693
692.703,95.3185
692.898,95.1749
693.092,95.2277
693.286,95.1036
693.48,95.0404
693.674,95.0824
693.868,95.0909
694.062,95.2163
694.256,95.1064
694.45,94.9937
694.644,95.1824
694.838,95.2154
695.032,95.3218
695.226,95.2823
695.42,95.2484
695.614,95.4803
695.808,95.4433
696.002,95.4632
696.195,95.4799
696.389,95.3925
696.583,95.4047
696.777,95.5046
696.971,95.5019
697.165,95.546
697.358,95.3852
697.552,95.1973
697.746,95.1602
697.94,95.1667
698.133,95.3287
698.327,95.2904
698.521,95.3344
698.715,95.162
698.908,95.0964
699.102,95.2429
699.296,95.2731
699.489,95.1849
699.683,95.0261
699.876,95.0571
700.07,95.095
700.264,95.0172
700.457,95.0567
700.651,95.0703
700.844,95.2741
701.038,95.2859
701.231,95.4145
701.425,95.4198
701.618,95.4123
701.812,95.3723
702.005,95.2745
702.199,95.3029
702.392,95.4219
702.586,95.6138
702.779,95.5869
702.972,95.6305
703.166,95.7781
703.359,95.8761
703.552,95.7143
703.746,95.7151
703.939,95.7579
704.132,95.6882
704.326,95.7526
704.519,95.7023
704.712,95.7534
704.905,95.7601
705.099,95.7842
705.292,95.816
705.485,95.9331
705.678,95.8042
705.871,95.6721
706.064,95.6224
706.258,95.59
706.451,95.4555
706.644,95.5215
706.837,95.6709
707.03,95.8092
707.223,95.8359
707.416,95.8938
707.609,95.69
707.802,95.7999
707.995,95.8068
708.188,95.8439
708.381,95.7096
708.574,95.7029
708.767,95.5123
708.96,95.3084
709.153,95.3807
709.346,95.4748
709.539,95.259
709.732,95.1828
709.924,95.2093
710.117,95.3497
710.31,95.1276
710.503,95.2167
710.696,95.4092
710.889,95.3821
711.081,95.3997
711.274,95.4545
711.467,95.5048
711.66,95.4887
711.852,95.5064
712.045,95.561
712.238,95.4638
712.43,95.6415
712.623,95.4314
712.816,95.3037
713.008,95.475
713.201,95.4339
713.394,95.2886
713.586,95.3346
713.779,95.3495
713.971,95.4854
714.164,95.4636
714.356,95.3978
714.549,95.439
714.741,95.4911
714.934,95.5924
715.126,95.5867
715.319,95.5146
715.511,95.3597
715.704,95.2069
715.896,95.313
716.088,95.2022
716.281,95.0598
716.473,95.1329
716.666,95.0035
716.858,94.9308
717.05,94.8056
717.243,94.7924
717.435,94.8633
717.627,94.816
717.819,94.8694
718.012,94.9053
718.204,94.9573
718.396,95.062
718.588,95.0993
718.781,95.1484
718.973,95.28
719.165,95.2908
719.357,95.2285
719.549,95
719.741,94.9322
719.934,94.8666
720.126,94.7667
720.318,94.65
720.51,94.5678
720.702,94.534
720.894,94.5112
721.086,94.6534
721.278,94.5654
721.47,94.5401
721.662,94.4117
721.854,94.7258
722.046,94.6722
722.238,94.7158
722.43,94.708
722.622,94.8073
722.814,94.544
723.005,94.6108
723.197,94.5766
723.389,94.3078
723.581,94.457
723.773,94.3492
723.965,94.3677
724.156,94.2697
724.348,94.3561
724.54,94.316
724.732,94.1811
724.923,94.1189
725.115,94.2558
725.307,94.2255
725.499,94.3359
725.69,94.2188
725.882,94.3834
726.074,94.3164
726.265,94.4657
726.457,94.2675
726.648,94.2695
726.84,94.1841
727.032,94.2781
727.223,94.2082
727.415,94.2461
727.606,94.4884
727.798,94.4957
727.989,94.3877
728.181,94.3812
728.372,94.5059
728.564,94.4178
728.755,94.468
728.947,94.3583
729.138,94.275
729.329,94.3011
729.521,94.3094
729.712,94.262
729.904,94.2931
730.095,94.4056
730.286,94.4034
730.478,94.3168
730.669,94.3329
730.86,94.4617
731.051,94.3131
731.243,94.2457
731.434,94.3369
731.625,94.5776
731.816,94.4036
732.008,94.5165
732.199,94.6153
732.39,94.7315
732.581,94.6451
732.772,94.4268
732.963,94.5216
733.154,94.5585
733.346,94.4097
733.537,94.3392
733.728,94.2041
733.919,94.2239
734.11,94.3333
734.301,94.2102
734.492,94.208
734.683,94.1996
734.874,94.1733
735.065,94.1317
735.256,94.0231
735.447,94.0492
735.638,94.1654
735.829,94.0918
736.019,94.0172
736.21,94.1925
736.401,94.1065
736.592,94.1564
736.783,94.1154
736.974,94.341
737.164,94.1866
737.355,94.3916
737.546,94.3965
737.737,94.3948
737.928,94.1639
738.118,94.1183
738.309,94.3555
738.5,94.415
738.69,94.3103
738.881,94.3253
739.072,94.2662
739.262,94.3164
739.453,94.253
739.644,94.2071
739.834,94.1252
740.025,94.2642
740.215,94.3369
740.406,94.4435
740.596,94.4203
740.787,94.3043
740.978,94.2691
741.168,94.2868
741.358,94.3553
741.549,94.4879
741.739,94.2882
741.93,94.2699
742.12,94.2923
742.311,94.3261
742.501,94.2434
742.691,94.23
742.882,94.3718
743.072,94.3314
743.263,94.2929
743.453,94.2141
743.643,94.2281
743.833,94.3427
744.024,94.1042
744.214,94.1324
744.404,94.1083
744.594,94.147
744.785,94.2495
744.975,94.2434
745.165,94.1425
745.355,93.9834
745.545,93.8375
745.736,93.8293
745.926,93.758
746.116,93.7764
746.306,93.6313
746.496,93.5282
746.686,93.4579
746.876,93.3772
747.066,93.1942
747.256,93.4071
747.446,93.5408
747.636,93.4036
747.826,93.3001
748.016,93.3307
748.206,93.3704
748.396,93.3959
748.586,93.2712
748.776,93.468
748.966,93.3759
749.156,93.2844
749.346,93.2447
749.535,93.185
749.725,93.2123
749.915,93.2041
750.105,93.1179
750.295,93.1885
750.484,93.0931
750.674,93.2971
750.864,93.0904
751.054,93.2804
751.243,93.2149
751.433,93.1353
751.623,93.0703
751.812,93.1165
752.002,93.0421
752.192,93.0226
752.381,92.8349
752.571,92.7954
752.761,92.9553
752.95,92.8369
753.14,92.731
753.329,92.6095
753.519,92.5718
753.708,92.7259
753.898,92.7206
754.087,92.6539
754.277,92.5305
754.466,92.6672
754.656,92.5761
754.845,92.5441
755.035,92.5637
755.224,92.6908
755.413,92.7986
755.603,92.6623
755.792,92.5651
755.982,92.6177
756.171,92.5539
756.36,92.5203
756.549,92.3701
756.739,92.4485
756.928,92.5574
757.117,92.5977
757.307,92.6095
757.496,92.6175
757.685,92.5602
757.874,92.7505
758.063,92.8589
758.253,92.8384
758.442,92.7285
758.631,92.6794
758.82,92.8606
759.009,92.9368
759.198,92.9036
759.387,92.7954
759.576,92.8296
759.765,92.8848
759.954,92.9494
760.143,92.592
760.332,92.4367
760.521,92.526
760.71,92.4371
760.899,92.4308
761.088,92.5818
761.277,92.6489
761.466,92.5639
761.655,92.6955
761.844,92.7145
762.033,93.0012
762.222,92.8769
762.411,92.7507
762.599,92.8677
762.788,92.853
762.977,92.8227
763.166,92.9456
763.355,93.0236
763.543,93.1224
763.732,93.3378
763.921,93.4234
764.109,93.4301
764.298,93.3963
764.487,93.3778
764.675,93.5269
764.864,93.5227
765.053,93.518
765.241,93.4841
765.43,93.367
765.619,93.3492
765.807,93.3374
765.996,93.1133
766.184,93.2054
766.373,93.3772
766.561,93.3252
766.75,93.3117
766.938,93.1815
767.127,93.3611
767.315,93.4307
767.504,93.4307
767.692,93.4699
767.881,93.5826
768.069,93.7564
768.257,93.6592
768.446,93.638
768.634,93.8833
768.822,93.7833
769.011,93.7704
769.199,93.8385
769.387,93.9135
769.576,93.7401
769.764,93.5157
769.952,93.5165
770.14,93.4442
770.328,93.3664
770.517,93.3806
770.705,93.4807
770.893,93.5214
771.081,93.5377
771.269,93.4257
771.457,93.4809
771.646,93.5746
771.834,93.7688
772.022,93.833
772.21,93.7529
772.398,93.7014
772.586,93.6663
772.774,93.7576
772.962,93.6647
773.15,93.7737
773.338,93.7647
773.526,93.6015
773.714,93.5793
773.902,93.7407
774.09,94.0042
774.278,93.9422
774.465,94.0264
774.653,93.932
774.841,93.8416
775.029,93.6696
775.217,93.7293
775.405,93.553
775.592,93.5913
775.78,93.6264
775.968,93.8267
776.156,93.8102
776.343,93.6135
776.531,93.4974
776.719,93.5661
776.907,93.5675
777.094,93.518
777.282,93.4096
777.47,93.4652
777.657,93.5714
777.845,93.5308
778.032,93.5463
778.22,93.49
778.408,93.4307
778.595,93.3411
778.783,93.3841
778.97,93.3606
779.158,93.216
779.345,93.0988
779.533,93.0678
779.72,93.1624
779.908,93.079
780.095,93.1245
780.282,93.0527
780.47,93.0291
780.657,92.971
780.845,92.7595
781.032,92.808
781.219,92.8184
781.407,92.8481
781.594,92.7491
781.781,92.5633
781.969,92.645
782.156,92.5993
782.343,92.5861
782.53,92.6639
782.718,92.6939
782.905,92.8382
783.092,92.883
783.279,92.8942
783.466,92.9759
783.653,93.047
783.841,93.2437
784.028,93.231
784.215,93.315
784.402,93.4155
784.589,93.4326
784.776,93.5055
784.963,93.5284
785.15,93.4799
785.337,93.5581
785.524,93.5165
785.711,93.4876
785.898,93.6608
786.085,93.6305
786.272,93.5681
786.459,93.6688
786.646,93.7484
786.833,93.7158
787.02,93.7191
787.206,93.8263
787.393,93.8204
787.58,93.7368
787.767,93.7008
787.954,93.6812
788.14,93.6812
788.327,93.7482
788.514,93.5805
788.701,93.6194
788.887,93.4163
789.074,93.5355
789.261,93.4672
789.448,93.3382
789.634,93.4552
789.821,93.4193
790.008,93.2973
790.194,93.3225
790.381,93.5801
790.567,93.5318
790.754,93.5726
790.94,93.7444
791.127,93.6924
791.314,93.8579
791.5,93.5752
791.687,93.5565
791.873,93.6957
792.059,93.8273
792.246,93.7511
792.432,93.8269
792.619,93.8181
792.805,93.8297
792.992,93.5815
793.178,93.4132
793.364,93.5838
793.551,93.6671
793.737,93.5885
793.923,93.7207
794.11,93.8668
794.296,94.0121
794.482,93.8145
794.668,93.5976
794.855,93.5978
795.041,93.6123
795.227,93.5703
795.413,93.6565
795.599,93.65
795.786,93.6494
795.972,93.5271
796.158,93.5227
796.344,93.6144
796.53,93.6889
796.716,93.3977
796.902,93.4801
797.088,93.4721
797.274,93.3425
797.46,93.3007
797.646,93.2584
797.832,93.4833
798.018,93.6478
798.204,93.5997
798.39,93.6384
798.576,93.4953
798.762,93.5773
798.948,93.4328
799.134,93.6164
799.32,93.4483
799.506,93.4788
799.692,93.3935
799.877,93.5015
800.063,93.6355
800.249,93.6089
800.435,93.6229
800.621,93.6508
800.806,93.551
800.992,93.3193
801.178,93.0454
801.363,92.7389
801.549,92.6996
801.735,92.6933
801.92,92.7646
802.106,92.7393
802.292,92.6719
802.477,92.5537
802.663,92.5001
802.849,92.3603
803.034,92.68
803.22,92.8255
803.405,92.6383
803.591,92.971
803.776,92.9087
803.962,92.8685
804.147,92.9286
804.333,92.8547
804.518,92.9759
804.703,92.8001
804.889,92.7226
805.074,92.8208
805.26,92.8716
805.445,92.8265
805.63,92.6409
805.816,93.0008
806.001,93.0093
806.186,92.9502
806.372,93.043
806.557,93.0554
806.742,93.1648
806.927,93.2779
807.113,93.5023
807.298,93.533
807.483,93.5928
807.668,93.5987
807.853,93.6769
808.039,93.7152
808.224,93.7181
808.409,93.8047
808.594,93.7829
808.779,93.9161
808.964,93.7939
809.149,93.7501
809.334,93.5575
809.519,93.5604
809.704,93.5078
809.889,93.5799
810.074,93.6127
810.259,93.6912
810.444,93.7839
810.629,93.7219
810.814,93.7723
810.999,93.9117
811.184,93.8701
811.369,93.7623
811.554,93.6082
811.738,93.6775
811.923,93.5701
812.108,93.5343
812.293,93.3802
812.478,93.4367
812.662,93.4552
812.847,93.4621
813.032,93.4652
813.217,93.3806
813.401,93.3081
813.586,93.4171
813.771,93.4803
813.955,93.4157
814.14,93.3869
814.325,93.3519
814.509,93.3152
814.694,93.3034
814.878,93.3884
815.063,93.3321
815.248,93.2565
815.432,93.0342
815.617,93.1793
815.801,93.2233
815.986,93.3335
816.17,93.2855
816.355,93.3423
816.539,93.2963
816.723,93.3195
816.908,93.2274
817.092,93.2125
817.277,93.164
817.461,93.2602
817.645,93.2529
817.83,93.2039
818.014,93.2895
818.198,93.3071
818.383,93.2533
818.567,93.1948
818.751,93.1012
818.935,93.0743
819.12,93.2082
819.304,93.1469
819.488,93.1554
819.672,93.0782
819.856,92.8153
820.041,92.723
820.225,92.4907
820.409,92.4365
820.593,92.4793
820.777,92.5563
820.961,92.5867
821.145,92.4467
821.329,92.5301
821.513,92.5447
821.697,92.4655
821.881,92.3821
822.065,92.3797
822.249,92.4381
822.433,92.3528
822.617,92.3564
822.801,92.4127
822.985,92.6008
823.169,92.5409
823.353,92.5443
823.536,92.7071
823.72,92.6782
823.904,92.5091
824.088,92.6207
824.272,92.5392
824.456,92.4137
824.639,92.4995
824.823,92.4441
825.007,92.2937
825.19,92.4518
825.374,92.431
825.558,92.5627
825.742,92.5675
825.925,92.5788
826.109,92.7285
826.292,92.6177
826.476,92.614
826.66,92.7438
826.843,92.6417
827.027,92.6896
827.21,92.8386
827.394,92.883
827.577,92.6578
827.761,92.7373
827.944,92.7933
828.128,92.6572
828.311,92.7536
828.495,92.5718
828.678,92.5936
828.862,92.5853
829.045,92.601
829.228,92.5953
829.412,92.527
829.595,92.5292
829.778,92.6768
829.962,92.7128
830.145,92.8217
830.328,92.9926
830.512,92.8848
830.695,92.7412
830.878,92.7952
831.061,92.5912
831.244,92.4691
831.428,92.3519
831.611,92.3283
831.794,92.432
831.977,92.3666
832.16,92.3259
832.343,92.2823
832.526,92.3446
832.709,92.2625
832.893,92.1396
833.076,92.2146
833.259,92.2794
833.442,92.2087
833.625,92.0043
833.808,92.1339
833.991,91.9737
834.174,91.999
834.356,92.1323
834.539,91.964
834.722,92.0862
834.905,91.9055
835.088,91.89
835.271,91.8238
835.454,91.9193
835.637,91.9265
835.819,91.9006
836.002,91.9163
836.185,91.89
836.368,92.0267
836.551,91.9073
836.733,91.6422
836.916,91.5081
837.099,91.3261
837.281,91.2683
837.464,91.3667
837.647,91.3017
837.829,91.3312
838.012,91.3732
838.195,91.4665
838.377,91.4824
838.56,91.4871
838.742,91.3267
838.925,91.3166
839.107,91.2028
839.29,91.2004
839.472,91.2126
839.655,91.1794
839.837,91.2088
840.02,90.9866
840.202,90.8059
840.385,90.8884
840.567,90.7545
840.749,90.8917
840.932,90.9408
841.114,90.8788
841.297,90.8091
841.479,90.8487
841.661,90.9398
841.843,90.897
842.026,90.7963
842.208,90.7468
842.39,90.792
842.572,90.8815
842.755,90.5642
842.937,90.6207
843.119,90.4674
843.301,90.3076
843.483,90.3219
843.666,90.329
843.848,90.2408
844.03,90.0529
844.212,90.1595
844.394,90.1446
844.576,90.0091
844.758,89.7709
844.94,89.7112
845.122,89.72
845.304,89.8783
845.486,89.9029
845.668,89.9125
845.85,89.9508
846.032,89.9574
846.214,90.0548
846.396,89.9565
846.578,89.8614
846.759,89.8055
846.941,89.7065
847.123,89.5058
847.305,89.5121
847.487,89.6016
847.669,89.5105
847.85,89.4143
848.032,89.3501
848.214,89.345
848.396,89.1683
848.577,89.0196
848.759,89.1198
848.941,89.0705
849.122,89.1337
849.304,89.0289
849.486,89.0512
849.667,89.1453
849.849,89.127
850.03,89.2203
850.212,89.2735
850.394,89.0701
850.575,88.9344
850.757,88.9794
850.938,89.0548
851.12,89.0552
851.301,89.1942
851.483,89.2207
851.664,89.0383
851.845,89.0067
852.027,89.0571
852.208,89.1787
852.39,88.9872
852.571,88.9703
852.752,88.8551
852.934,89.0552
853.115,89.0524
853.296,89.073
853.478,89.278
853.659,89.2154
853.84,89.1803
854.021,89.1846
854.203,89.0177
854.384,89.1555
854.565,89.2199
854.746,89.1166
854.927,89.1047
855.108,89.1365
855.29,89.2755
855.471,89.2635
855.652,89.4243
855.833,89.3864
856.014,89.4184
856.195,89.3595
856.376,89.4752
856.557,89.7405
856.738,89.8496
856.919,89.9137
857.1,89.8457
857.281,89.7574
857.462,89.7609
857.643,89.5174
857.824,89.529
858.005,89.4143
858.185,89.4153
858.366,89.4766
858.547,89.4919
858.728,89.5292
858.909,89.5317
859.09,89.5791
859.27,89.6319
859.451,89.754
859.632,89.6152
859.813,89.4838
859.993,89.4785
860.174,89.6427
860.355,89.6694
860.535,89.5716
860.716,89.4467
860.897,89.5916
861.077,89.6609
861.258,89.5606
861.438,89.614
861.619,89.8114
861.8,89.7177
861.98,89.6079
862.161,89.4235
862.341,89.5714
862.522,89.6757
862.702,89.5455
862.883,89.7617
863.063,89.7962
863.243,89.8367
863.424,89.8793
863.604,89.828
863.785,89.6592
863.965,89.7526
864.145,89.754
864.326,89.6437
864.506,89.603
864.686,89.7218
864.867,89.768
865.047,89.7428
865.227,89.8388
865.407,89.9343
865.588,89.895
865.768,89.8135
865.948,89.7216
866.128,89.6686
866.308,89.5626
866.488,89.7228
866.669,89.8251
866.849,89.7383
867.029,89.8532
867.209,89.8477
867.389,89.893
867.569,90.0008
867.749,89.8972
867.929,89.9449
868.109,90.0063
868.289,90.0515
868.469,90.0246
868.649,90.091
868.829,90.058
869.009,90.0385
869.189,90.078
869.369,90.164
869.548,90.0921
869.728,90.1752
869.908,90.1644
870.088,90.1295
870.268,90.2732
870.448,90.2909
870.627,90.3097
870.807,90.3792
870.987,90.52
871.167,90.5316
871.346,90.5764
871.526,90.4397
871.706,90.534
871.885,90.5369
872.065,90.5832
872.245,90.5047
872.424,90.4805
872.604,90.6237
872.783,90.551
872.963,90.5685
873.142,90.642
873.322,90.8495
873.501,90.8629
873.681,90.7704
873.86,90.6268
874.04,90.717
874.219,90.7311
874.399,90.7983
874.578,90.7531
874.758,90.8151
874.937,90.7419
875.116,90.8756
875.296,90.7676
875.475,90.8375
875.654,90.7863
875.834,90.8868
876.013,90.8307
876.192,90.9298
876.372,90.9927
876.551,91.0349
876.73,91.0867
876.909,91.2163
877.088,91.1348
877.268,91.1234
877.447,91.0474
877.626,91.1982
877.805,90.9711
877.984,91.0368
878.163,91.1792
878.342,91.1776
878.521,91.1782
878.7,91.026
878.879,91.0694
879.059,91.2283
879.238,91.1368
879.417,91.1694
879.595,91.2365
879.774,91.2132
879.953,91.0798
880.132,91.0388
880.311,90.9946
880.49,90.9875
880.669,90.9233
880.848,90.9438
881.027,91.052
881.205,90.9512
881.384,90.8489
881.563,90.6496
881.742,90.6255
881.921,90.5785
882.099,90.7488
882.278,90.6865
882.457,90.7356
882.635,90.7284
882.814,90.8279
882.993,90.9318
883.171,90.8405
883.35,90.833
883.529,90.8939
883.707,90.9023
883.886,91.1814
884.064,91.2039
884.243,91.2591
884.422,91.2043
884.6,91.3265
884.779,91.4883
884.957,91.3269
885.136,91.3665
885.314,91.3265
885.492,91.4963
885.671,91.5409
885.849,91.4578
886.028,91.4751
886.206,91.2744
886.384,91.1894
886.563,91.198
886.741,91.3524
886.919,91.3522
887.098,91.3867
887.276,91.3398
887.454,91.35
887.632,91.3453
887.811,91.3157
887.989,91.2888
888.167,91.3485
888.345,91.4419
888.523,91.4441
888.702,91.4912
888.88,91.5271
889.058,91.3765
889.236,91.4127
889.414,91.4354
889.592,91.3388
889.77,91.2619
889.948,91.3506
890.126,91.3856
890.304,91.4539
890.482,91.4356
890.66,91.4146
890.838,91.4902
891.016,91.5179
891.194,91.5525
891.372,91.4565
891.55,91.5
891.728,91.3697
891.905,91.3942
892.083,91.2705
892.261,91.3504
892.439,91.4598
892.617,91.3298
892.794,91.1959
892.972,91.2244
893.15,91.3508
893.328,91.5328
893.505,91.3628
893.683,91.5379
893.861,91.5719
894.038,91.7445
894.216,91.8403
894.394,91.9079
894.571,92.0021
894.749,92.1679
894.926,92.1765
895.104,92.1853
895.281,92.0811
895.459,91.943
895.637,91.9811
895.814,92.0771
895.992,92.2209
896.169,91.9501
896.346,91.9377
896.524,92.104
896.701,92.1396
896.879,92.0306
897.056,91.9593
897.233,92.018
897.411,92.2113
897.588,92.2054
897.765,92.0697
897.943,92.1366
898.12,92.2427
898.297,92.2933
898.475,92.1351
898.652,92.3693
898.829,92.3151
899.006,92.2747
899.183,92.1427
899.361,92.1095
899.538,92.1816
899.715,92.2971
899.892,92.3937
900.069,92.4536
900.246,92.4926
900.423,92.4701
900.6,92.2727
900.777,92.3874
900.954,92.4991
901.131,92.5358
901.308,92.3809
901.485,92.3907
901.662,92.4465
901.839,92.5883
902.016,92.604
902.193,92.5178
902.37,92.4481
902.547,92.4655
902.724,92.5284
902.9,92.4518
903.077,92.4571
903.254,92.4797
903.431,92.5374
903.608,92.604
903.784,92.5673
903.961,92.5325
904.138,92.4524
904.315,92.5657
904.491,92.3693
904.668,92.4917
904.845,92.4773
905.021,92.3909
905.198,92.5221
905.375,92.6144
905.551,92.6831
905.728,92.7346
905.904,92.7842
906.081,92.734
906.257,92.7778
906.434,92.7897
906.61,92.579
906.787,92.5101
906.963,92.4355
907.14,92.4174
907.316,92.3297
907.493,92.2694
907.669,92.2128
907.845,92.2067
908.022,92.3367
908.198,92.4112
908.374,92.2054
908.551,92.1718
908.727,92.3668
908.903,92.4139
909.08,92.3004
909.256,92.4269
909.432,92.6368
909.608,92.7302
909.785,92.7161
909.961,92.6544
910.137,92.6707
910.313,92.7974
910.489,92.8467
910.665,92.8504
910.841,92.7575
911.018,92.8649
911.194,92.733
911.37,92.8486
911.546,92.8121
911.722,92.8475
911.898,92.8459
912.074,92.8451
912.25,92.7281
912.426,92.7071
912.602,92.7114
912.777,92.6925
912.953,92.7387
913.129,92.9185
913.305,92.905
913.481,93.0044
913.657,92.959
913.833,92.9643
914.008,93.035
914.184,92.9614
914.36,93.0941
914.536,93.0281
914.712,92.8532
914.887,92.8973
915.063,92.8612
915.239,93.055
915.414,93.0262
915.59,93.0216
915.766,93.0436
915.941,93.2681
916.117,93.1483
916.292,93.2785
916.468,93.3986
916.644,93.5037
916.819,93.5428
916.995,93.758
917.17,93.7413
917.346,93.8202
917.521,93.8664
917.697,93.6918
917.872,93.7843
918.048,93.7751
918.223,93.744
918.398,93.9206
918.574,93.8391
918.749,94.0936
918.924,94.0987
919.1,94.0036
919.275,93.9818
919.45,93.7823
919.626,93.7965
919.801,93.7268
919.976,93.7307
920.151,93.7963
920.327,93.6981
920.502,93.7896
920.677,93.7433
920.852,93.8454
921.027,93.6608
921.202,93.608
921.378,93.5934
921.553,93.5663
921.728,93.6665
921.903,93.7228
922.078,93.7114
922.253,93.6345
922.428,93.6549
922.603,93.7556
922.778,93.8265
922.953,93.8499
923.128,93.8304
923.303,93.8601
923.478,94.1193
923.652,94.2624
923.827,94.1436
924.002,94.1937
924.177,94.114
924.352,94.1026
924.527,94.0932
924.702,94.0553
924.876,94.0323
925.051,93.9903
925.226,94.0633
925.401,93.845
925.575,93.886
925.75,94.0519
925.925,93.9944
926.099,93.9455
926.274,93.952
926.449,93.9661
926.623,93.994
926.798,93.9659
926.972,94.1425
927.147,94.2669
927.322,94.158
927.496,94.2202
927.671,94.2155
927.845,94.1348
928.02,94.072
928.194,94.2218
928.368,94.1866
928.543,94.0755
928.717,93.9375
928.892,93.963
929.066,93.8886
929.24,93.8465
929.415,93.6814
929.589,93.65
929.763,93.5832
929.938,93.5019
930.112,93.5041
930.286,93.4825
930.461,93.5412
930.635,93.444
930.809,93.3845
930.983,93.4081
931.157,93.3372
931.332,93.2341
931.506,93.3523
931.68,93.3437
931.854,93.3539
932.028,93.3853
932.202,93.4307
932.376,93.5583
932.55,93.5072
932.724,93.2712
932.898,93.1701
933.072,93.2893
933.246,93.4768
933.42,93.3492
933.594,93.1693
933.768,93.2029
933.942,92.9875
934.116,93.0148
934.29,93.0057
934.464,93.0994
934.638,93.1446
934.811,93.1053
934.985,93.0236
935.159,92.7813
935.333,92.7198
935.507,92.6582
935.68,92.5659
935.854,92.6095
936.028,92.4736
936.201,92.4995
936.375,92.5896
936.549,92.69
936.722,92.668
936.896,92.5788
937.07,92.4225
937.243,92.5853
937.417,92.7222
937.59,92.6299
937.764,92.5011
937.938,92.4477
938.111,92.411
938.285,92.5032
938.458,92.3605
938.631,92.4033
938.805,92.4017
938.978,92.4131
939.152,92.4276
939.325,92.5461
939.499,92.5439
939.672,92.5751
939.845,92.4777
940.019,92.3786
940.192,92.3974
940.365,92.1861
940.538,92.2305
940.712,92.1965
940.885,92.2751
941.058,92.4665
941.231,92.5698
941.405,92.6925
941.578,92.5722
941.751,92.6501
941.924,92.7485
942.097,92.6599
942.27,92.6535
942.443,92.8909
942.617,92.8655
942.79,92.9639
942.963,92.9129
943.136,92.8514
943.309,92.7899
943.482,92.8104
943.655,92.9019
943.828,92.7536
944.001,92.7917
944.173,92.8506
944.346,92.7996
944.519,92.6167
944.692,92.59
944.865,92.506
945.038,92.593
945.211,92.5529
945.383,92.5003
945.556,92.4412
945.729,92.5109
945.902,92.508
946.075,92.4836
946.247,92.5822
946.42,92.5818
946.593,92.5555
946.765,92.5949
946.938,92.5845
947.111,92.7065
947.283,92.8524
947.456,92.6861
947.628,92.5278
947.801,92.7575
947.974,92.5826
948.146,92.4718
948.319,92.4141
948.491,92.602
948.664,92.604
948.836,92.5158
949.009,92.6073
949.181,92.6576
949.353,92.6592
949.526,92.5847
949.698,92.6658
949.871,92.6829
950.043,92.6857
950.215,92.5376
950.388,92.4844
950.56,92.6788
950.732,92.665
950.904,92.5584
951.077,92.6929
951.249,92.6609
951.421,92.6743
951.593,92.687
951.766,92.7214
951.938,92.7728
952.11,92.8314
952.282,92.8404
952.454,92.777
952.626,92.9951
952.798,93.0517
952.97,93.0051
953.142,93.0582
953.314,92.8704
953.487,92.9093
953.659,92.8746
953.83,92.8755
954.002,92.8094
954.174,92.7654
954.346,92.7291
954.518,92.7351
954.69,92.8333
954.862,92.8881
955.034,92.9003
955.206,92.9631
955.378,93.0183
955.549,93.0236
955.721,92.8369
955.893,92.8473
956.065,92.7416
956.236,92.9201
956.408,93.0273
956.58,93.0348
956.752,93.024
956.923,93.2037
957.095,93.1573
957.267,93.1785
957.438,92.9918
957.61,92.9773
957.781,92.8628
957.953,92.8997
958.125,92.9559
958.296,92.7787
958.468,92.6727
958.639,92.7116
958.811,92.7644
958.982,92.8946
959.154,92.9099
959.325,92.8873
959.496,92.8155
959.668,92.8062
959.839,92.8475
960.011,92.9129
960.182,93.1169
960.353,93.0676
960.525,92.8327
960.696,92.7067
960.867,92.8316
961.038,92.8924
961.21,93.0299
961.381,92.9364
961.552,93.0087
961.723,92.881
961.895,92.7691
962.066,92.6503
962.237,92.8094
962.408,92.821
962.579,92.8227
962.75,92.9034
962.921,92.9692
963.092,93.1041
963.263,93.0923
963.434,93.0896
963.605,93.0026
963.776,93.0018
963.947,92.9716
964.118,92.9692
964.289,92.8528
964.46,92.7874
964.631,92.7261
964.802,92.5608
964.973,92.5527
965.144,92.4292
965.315,92.483
965.485,92.4108
965.656,92.3697
965.827,92.4178
965.998,92.323
966.169,92.127
966.339,92.2248
966.51,92.1488
966.681,92.259
966.851,92.3361
967.022,92.2246
967.193,92.1751
967.363,92.309
967.534,92.2228
967.705,92.2837
967.875,92.1125
968.046,92.1504
968.216,92.1341
968.387,92.2784
968.557,92.1952
968.728,92.1688
968.898,92.3391
969.069,92.3454
969.239,92.3636
969.41,92.4746
969.58,92.5225
969.751,92.5773
969.921,92.7717
970.091,92.776
970.262,92.9115
970.432,93.0212
970.602,93.0756
970.773,93.0423
970.943,92.9663
971.113,93.1249
971.283,93.1053
971.454,93.0701
971.624,93.3594
971.794,93.272
971.964,93.2545
972.134,93.1797
972.305,93.2421
972.475,93.2482
972.645,93.259
972.815,93.2447
972.985,93.3814
973.155,93.238
973.325,93.2987
973.495,93.2954
973.665,93.3032
973.835,93.1899
974.005,93.1055
974.175,93.2392
974.345,93.1883
974.515,93.2581
974.685,93.2382
974.855,93.3195
975.024,93.3855
975.194,93.1628
975.364,92.9847
975.534,92.7833
975.704,92.5967
975.874,92.4487
976.043,92.5074
976.213,92.4273
976.383,92.3248
976.553,92.3411
976.722,92.6652
976.892,92.5898
977.062,92.6401
977.231,92.443
977.401,92.627
977.57,92.5437
977.74,92.5386
977.91,92.4807
978.079,92.5541
978.249,92.5211
978.418,92.4787
978.588,92.4198
978.757,92.4752
978.927,92.5105
979.096,92.4355
979.266,92.5413
979.435,92.5722
979.604,92.6554
979.774,92.766
979.943,92.7776
980.113,92.7481
980.282,92.724
980.451,92.5944
980.621,92.6625
980.79,92.5618
980.959,92.5345
981.128,92.4889
981.298,92.4106
981.467,92.3004
981.636,92.2071
981.805,92.2662
981.974,92.3762
982.143,92.1918
982.313,92.1302
982.482,92.0683
982.651,92.0929
982.82,91.998
982.989,92.0151
983.158,91.9813
983.327,91.9287
983.496,91.9454
983.665,91.8824
983.834,91.901
984.003,91.9165
984.172,91.878
984.341,91.9177
984.51,91.8977
984.679,91.8313
984.847,91.5941
985.016,91.5696
985.185,91.4924
985.354,91.374
985.523,91.3687
985.692,91.4123
985.86,91.3842
986.029,91.4427
986.198,91.3447
986.366,91.2587
986.535,91.148
986.704,91.2719
986.873,91.2332
987.041,91.1631
987.21,91.1368
987.378,91.1554
987.547,91.246
987.716,91.1859
987.884,91.0074
988.053,91.0537
988.221,91.127
988.39,91.267
988.558,91.1941
988.727,91.1087
988.895,91.0182
989.064,90.8523
989.232,90.7757
989.4,90.7871
989.569,90.7751
989.737,90.8807
989.905,90.9895
990.074,91.0021
990.242,91.101
990.41,90.8843
990.579,90.7725
990.747,90.6702
990.915,90.6302
991.083,90.5349
991.252,90.4389
991.42,90.5043
991.588,90.5726
991.756,90.6215
991.924,90.6247
992.092,90.5766
992.261,90.6423
992.429,90.6926
992.597,90.7476
992.765,90.6614
992.933,90.5744
993.101,90.3888
993.269,90.3853
993.437,90.2932
993.605,90.3066
993.773,90.3708
993.941,90.1683
994.109,90.1636
994.277,90.0918
994.444,89.9388
994.612,90.0338
994.78,90.1155
994.948,90.0199
995.116,89.9951
995.284,89.8025
995.451,89.7992
995.619,89.7365
995.787,89.6419
995.955,89.6647
996.122,89.8616
996.29,89.8895
996.458,89.8736
996.625,89.8049
996.793,89.7599
996.961,89.646
997.128,89.4534
997.296,89.4485
997.463,89.4283
997.631,89.4885
997.798,89.5086
997.966,89.6005
998.133,89.6315
998.301,89.8294
998.468,89.951
998.636,90.0073
998.803,89.979
998.971,90.0499
999.138,90.0272
999.305,90.0662
999.473,90.3892
999.64,90.4256
999.807,90.4277
999.975,90.4415
1000.14,90.4381
1000.31,90.316
1000.48,90.4317
1000.64,90.2748
1000.81,90.1668
1000.98,90.3254
1001.15,90.3979
1001.31,90.2653
1001.48,90.3765
1001.65,90.2176
1001.81,90.1218
1001.98,90.188
1002.15,90.2852
1002.32,90.3476
1002.48,90.5061
1002.65,90.4699
1002.82,90.3533
1002.98,90.3197
1003.15,90.2903
1003.32,90.2217
1003.48,90.2084
1003.65,90.2463
1003.82,90.0629
1003.98,90.1461
1004.15,90.0299
1004.32,89.9496
1004.49,89.8094
1004.65,89.8917
1004.82,89.8304
1004.99,89.7546
1005.15,89.9374
1005.32,89.958
1005.49,89.691
1005.65,89.7145
1005.82,89.5105
1005.99,89.5751
1006.15,89.5718
1006.32,89.4876
1006.49,89.5539
1006.65,89.5518
1006.82,89.4548
1006.99,89.4129
1007.15,89.452
1007.32,89.4019
1007.49,89.357
1007.65,89.4273
1007.82,89.388
1007.98,89.4952
1008.15,89.5932
1008.32,89.6572
1008.48,89.7059
1008.65,89.7627
1008.82,89.8516
1008.98,89.9339
1009.15,90.0923
1009.32,90.1895
1009.48,90.2439
1009.65,90.3655
1009.81,90.3987
1009.98,90.4992
1010.15,90.5092
1010.31,90.4937
1010.48,90.2039
1010.65,90.1939
1010.81,90.2141
1010.98,90.3148
1011.14,90.2019
1011.31,90.2518
1011.48,90.2807
1011.64,90.2683
1011.81,90.1658
1011.97,90.2347
1012.14,90.2433
1012.31,90.1996
1012.47,90.0973
1012.64,90.0138
1012.8,89.9543
1012.97,89.9127
1013.14,89.7951
1013.3,89.991
1013.47,89.8765
1013.63,89.9339
1013.8,89.8964
1013.97,89.8864
1014.13,90.0727
1014.3,89.9315
1014.46,89.8494
1014.63,89.7577
1014.79,89.8818
1014.96,90.0338
1015.13,90.1173
1015.29,90.1642
1015.46,90.1326
1015.62,90.1483
1015.79,90.0888
1015.95,90.2007
1016.12,90.1805
1016.29,90.1636
1016.45,90.188
1016.62,90.0562
1016.78,90.0678
1016.95,90.0872
1017.11,90.0955
1017.28,90.0715
1017.44,90.0906
1017.61,90.1764
1017.78,90.1181
1017.94,90.0751
1018.11,90.2092
1018.27,90.2779
1018.44,90.3676
1018.6,90.3535
1018.77,90.3266
1018.93,90.3649
1019.1,90.2243
1019.26,90.0171
1019.43,90.0085
1019.59,89.9217
1019.76,89.8265
1019.92,89.7898
1020.09,89.8652
1020.25,89.84
1020.42,89.7269
1020.59,89.6845
1020.75,89.5588
1020.92,89.5706
1021.08,89.4954
1021.25,89.5867
1021.41,89.8237
1021.58,89.9162
1021.74,89.8946
1021.91,89.8002
1022.07,89.8512
1022.24,89.7699
1022.4,89.8705
1022.57,89.9042
1022.73,89.9726
1022.89,89.832
1023.06,89.8284
1023.22,89.7273
1023.39,89.7711
1023.55,89.8145
1023.72,89.7833
1023.88,89.8585
1024.05,89.8288
1024.21,89.8997
1024.38,89.9266
1024.54,89.9441
1024.71,90.1092
1024.87,90.0177
1025.04,89.9358
1025.2,89.8632
1025.37,89.9826
1025.53,90.0637
1025.7,89.9341
1025.86,89.7774
1026.02,89.6209
1026.19,89.6568
1026.35,89.7689
1026.52,89.8163
1026.68,89.8251
1026.85,89.8498
1027.01,90.0006
1027.18,89.9869
1027.34,90.1434
1027.5,88.4388
1027.67,86.8823
1027.83,99.334
1028,87.8244
1028.16,76.5196
1028.33,91.4698
1028.49,97.9823
1028.65,92.2071
1028.82,82.9502
1028.98,81.0252
1029.15,73.3248
1029.31,71.2768
1029.48,89.3809
1029.64,81.7215
1029.8,139.761
1029.97,87.4148
1030.13,118.79
1030.3,76.2329
1030.46,80.5746
1030.62,107.28
1030.79,79.4277
1030.95,63.8222
1031.12,61.7742
1031.28,100.399
1031.44,112.973
1031.61,107.321
1031.77,88.234
1031.94,79.2639
1032.1,103.43
1032.26,88.4388
1032.43,95.0742
1032.59,76.1919
1032.76,88.0292
1032.92,115.882
1033.08,79.6735
1033.25,82.5406
1033.41,104.618
1033.57,96.0163
1033.74,78.7314
1033.9,87.9882
1034.07,117.315
1034.23,88.234
1034.39,72.055
1034.56,120.223
1034.72,88.275
1034.88,95.2381
1035.05,82.9912
1035.21,80.8613
1035.37,89.6676
1035.54,73.3248
1035.7,61.6923
1035.86,98.7196
1036.03,83.4008
1036.19,78.9362
1036.35,67.8362
1036.52,96.6716
1036.68,105.887
1036.84,87.3739
1037.01,83.4418
1037.17,67.8362
1037.33,86.8414
1037.5,85.3259
1037.66,95.4019
1037.82,112.031
1037.99,109.287
1038.15,89.258
1038.31,96.5488
1038.48,78.0761
1038.64,63.8632
1038.8,98.0233
1038.97,66.1569
1039.13,99.9484
1039.29,73.6934
1039.46,89.9953
1039.62,86.9643
1039.78,97.4499
1039.95,96.9174
1040.11,86.3089
1040.27,93.8045
1040.43,82.2539
1040.6,84.6296
1040.76,87.9473
1040.92,89.9133
1041.09,95.4019
1041.25,94.0093
1041.41,85.8584
1041.57,91.1831
1041.74,108.632
1041.9,95.4838
1042.06,77.2978
1042.23,69.4746
1042.39,80.0831
1042.55,88.7665
1042.71,109.164
1042.88,89.9543
1043.04,87.0462
1043.2,79.2639
1043.36,119.978
1043.53,98.9654
1043.69,96.0982
EndSpectrumFile,BASELINE
SpectrumFile,RAW DATA
Version,1.000000
Location,home
Customer,rudolf
SampleInfo,USB4000 dark
GPSData,51.118460,-114.185342,1173.000000,8278,230311
SystemTime,2011,3,23,2,29,25,265
Pipe km,0.000000
Pre-Dilution Factor,1.000000
Freeform Info,
Concentration,-9.073558
CalibrationName,USB4000 dark
Unique Calibration File ID,20110323-0226570968-TESTBOX2-7E963C-00008931
CalibrationWavelength,700.000000
CalibrationType,2,0.000000,0.616679
CalibrationRSquared,1.000000
CalibrationConcentrations [ppm],2,0.000000,10.000000
CalibrationCounts,2,0.000000,16.215900
CalibrationWarnLow,0.000000
CalibrationWarnHigh,10.000000
CalibrationErrorLow,0.000000
CalibrationErrorHigh,0.000000
Spectrometer Name,USB4000
Spectrometer Serial,USB4H02759
IntegrationTime [ms],50.000000
AveragedSpectra,50
BoxcarWidth,100
WavelengthRange [nm],346.775360,1043.690197
IntensityRange [counts],-30.857525,118.275559
WavelengthCount,3648
Wavelength [nm],Intensity [counts]
346.775,-30.8575
346.991,-30.8575
347.206,-30.8575
347.421,-30.8166
347.637,-30.2022
347.852,90.2184
348.067,72.0734
348.282,69.4929
348.498,69.3701
348.713,84.607
348.928,94.0686
349.143,80.552
349.358,50.9793
349.574,61.5878
349.789,62.4479
350.004,103.243
350.219,60.8505
350.434,80.7977
350.649,79.0774
350.864,69.2062
351.079,91.4881
351.295,91.57
351.51,48.1531
351.725,71.418
351.94,62.6937
352.155,64.9055
352.37,92.0206
352.585,75.0634
352.8,108.568
353.015,55.4439
353.23,90.7099
353.445,64.414
353.66,73.1793
353.875,80.4701
354.09,88.7438
354.305,58.1062
354.52,85.549
354.735,58.4339
354.949,90.8328
355.164,109.469
355.379,58.5977
355.594,75.3092
355.809,88.4571
356.024,88.0475
356.239,87.8018
356.453,89.3582
356.668,72.442
356.883,74.5719
357.098,102.998
357.313,71.3771
357.527,74.2442
357.742,69.6977
357.957,65.6428
358.172,74.9815
358.386,82.2313
358.601,82.5999
358.816,101.277
359.03,56.345
359.245,79.3232
359.46,104.923
359.674,78.9546
359.889,62.5298
360.104,97.0996
360.318,96.9357
360.533,84.6889
360.748,66.9535
360.962,81.8627
361.177,57.0413
361.391,75.5959
361.606,78.2582
361.82,87.1874
362.035,83.4191
362.25,70.435
362.464,69.1653
362.679,118.276
362.893,84.8117
363.108,89.8907
363.322,96.608
363.536,76.538
363.751,65.1103
363.965,86.4092
364.18,76.2103
364.394,83.2143
364.609,75.9645
364.823,81.9856
365.037,93.1265
365.252,71.9095
365.466,69.4929
365.68,78.504
365.895,78.7907
366.109,83.6649
366.323,76.6608
366.538,76.8247
366.752,68.3051
366.966,82.4771
367.181,69.2062
367.395,78.5859
367.609,62.2841
367.823,97.8368
368.038,86.1224
368.252,78.1486
368.466,78.6517
368.68,79.2509
368.894,79.7265
369.109,80.1573
369.323,80.778
369.537,80.6948
369.751,80.7454
369.965,80.889
370.179,80.9489
370.393,80.9149
370.607,80.843
370.822,81.0056
371.036,81.1613
371.25,81.1992
371.464,81.3141
371.678,81.2422
371.892,81.3534
372.106,81.2807
372.32,81.4498
372.534,81.4926
372.748,81.4839
372.962,81.4863
373.176,81.619
373.39,81.7412
373.604,81.8356
373.818,81.9222
374.031,81.7814
374.245,81.85
374.459,81.6878
374.673,81.7382
374.887,81.7424
375.101,81.8276
375.315,81.8472
375.529,81.8627
375.742,81.7736
375.956,81.8584
376.17,81.8317
376.384,81.8873
376.598,81.7583
376.811,81.5668
377.025,81.7339
377.239,81.8423
377.453,81.9313
377.666,81.9285
377.88,81.8339
378.094,82.0459
378.307,82.1708
378.521,82.2886
378.735,82.1129
378.948,82.169
379.162,82.2276
379.376,82.3112
379.589,82.4744
379.803,82.5323
380.016,82.4088
380.23,82.5468
380.444,82.495
380.657,82.6056
380.871,82.6692
381.084,82.5327
381.298,82.3931
381.511,82.3843
381.725,82.5093
381.938,82.5533
382.152,82.4993
382.365,82.5311
382.579,82.5339
382.792,82.616
383.006,82.646
383.219,82.669
383.433,82.6356
383.646,82.678
383.859,82.6613
384.073,82.7153
384.286,82.4027
384.5,82.3782
384.713,82.322
384.926,82.249
385.14,82.4151
385.353,82.4903
385.566,82.4602
385.779,82.4259
385.993,82.4137
386.206,82.4479
386.419,82.3721
386.633,82.2731
386.846,82.4367
387.059,82.5245
387.272,82.5274
387.485,82.6268
387.699,82.5639
387.912,82.616
388.125,82.6753
388.338,82.8781
388.551,82.939
388.764,82.9773
388.978,82.9953
389.191,83.0101
389.404,82.9649
389.617,82.8724
389.83,82.7279
390.043,82.8221
390.256,82.7269
390.469,82.8017
390.682,82.6203
390.895,82.6006
391.108,82.4062
391.321,82.387
391.534,82.0954
391.747,82.1496
391.96,81.8113
392.173,81.8539
392.386,82.0554
392.599,82.0817
392.812,82.2668
393.025,82.2802
393.238,82.2486
393.451,82.1753
393.663,81.9984
393.876,82.1441
394.089,81.9118
394.302,82.0279
394.515,82.001
394.728,81.8967
394.941,81.9134
395.153,81.8221
395.366,81.7579
395.579,81.7911
395.792,81.5574
396.004,81.641
396.217,81.5584
396.43,81.5468
396.643,81.5992
396.855,81.4918
397.068,81.5813
397.281,81.5507
397.493,81.5521
397.706,81.5091
397.919,81.4671
398.131,81.5523
398.344,81.4867
398.557,81.4402
398.769,81.137
398.982,81.1984
399.194,81.0743
399.407,81.1252
399.619,81.0887
399.832,81.0967
400.045,81.1547
400.257,81.4197
400.47,81.5201
400.682,81.6715
400.895,81.7365
401.107,81.759
401.319,81.7241
401.532,81.644
401.744,81.6689
401.957,81.6831
402.169,81.482
402.382,81.5222
402.594,81.5291
402.806,81.6481
403.019,81.7206
403.231,81.623
403.444,81.5829
403.656,81.6106
403.868,81.7039
404.081,81.8217
404.293,81.9456
404.505,81.9252
404.717,81.8445
404.93,82.0127
405.142,81.8001
405.354,81.8773
405.566,81.9434
405.779,81.997
405.991,81.9786
406.203,82.043
406.415,81.943
406.627,81.8802
406.84,81.7463
407.052,81.9976
407.264,81.8661
407.476,81.8441
407.688,81.9523
407.9,81.968
408.112,82.0135
408.324,82.2136
408.537,82.2323
408.749,82.4404
408.961,82.4879
409.173,82.6162
409.385,82.5891
409.597,82.4634
409.809,82.4245
410.021,82.3778
410.233,82.3642
410.445,82.2664
410.657,82.4752
410.869,82.5333
411.081,82.4467
411.292,82.5594
411.504,82.5663
411.716,82.7249
411.928,82.7994
412.14,82.7721
412.352,82.7385
412.564,82.776
412.776,82.69
412.988,82.777
413.199,82.6421
413.411,82.6004
413.623,82.4512
413.835,82.3976
414.047,82.4785
414.258,82.6277
414.47,82.6423
414.682,82.5129
414.894,82.6307
415.105,82.4781
415.317,82.4043
415.529,82.27
415.74,82.1494
415.952,82.2207
416.164,82.1488
416.375,82.1696
416.587,82.2093
416.799,82.3118
417.01,82.3177
417.222,82.3473
417.433,82.5256
417.645,82.4047
417.857,82.3933
418.068,82.3941
418.28,82.3925
418.491,82.4096
418.703,82.4536
418.914,82.5215
419.126,82.7006
419.337,82.8936
419.549,82.8068
419.76,82.7499
419.972,82.6774
420.183,82.68
420.394,82.6446
420.606,82.657
420.817,82.4483
421.029,82.3426
421.24,82.2633
421.451,82.226
421.663,82.3147
421.874,82.3837
422.085,82.3271
422.297,82.1683
422.508,82.1396
422.719,82.4298
422.931,82.256
423.142,82.2549
423.353,82.3255
423.565,82.367
423.776,82.3579
423.987,82.6254
424.198,82.6884
424.409,82.4457
424.621,82.4015
424.832,82.4025
425.043,82.4257
425.254,82.454
425.465,82.4102
425.676,82.4512
425.888,82.5512
426.099,82.5036
426.31,82.4265
426.521,82.4593
426.732,82.3992
426.943,82.5419
427.154,82.5516
427.365,82.4864
427.576,82.4834
427.787,82.2427
427.998,82.1549
428.209,82.2107
428.42,82.3246
428.631,82.4055
428.842,82.354
429.053,82.3462
429.264,82.4088
429.475,82.3485
429.686,82.3032
429.897,82.3438
430.108,82.1549
430.319,82.3615
430.529,82.278
430.74,82.2062
430.951,82.2446
431.162,82.1932
431.373,82.1376
431.584,82.2083
431.794,82.333
432.005,82.2327
432.216,82.2723
432.427,82.2421
432.637,82.3014
432.848,82.517
433.059,82.3513
433.27,82.2325
433.48,82.3202
433.691,82.4094
433.902,82.6222
434.112,82.5969
434.323,82.656
434.534,82.8585
434.744,82.842
434.955,82.67
435.166,82.5845
435.376,82.5056
435.587,82.594
435.797,82.6065
436.008,82.4862
436.218,82.6876
436.429,82.7795
436.64,82.9219
436.85,82.8247
437.061,82.7986
437.271,82.9871
437.482,83.0637
437.692,83.1893
437.902,83.1161
438.113,83.0085
438.323,83.1018
438.534,82.9614
438.744,82.8966
438.955,82.9763
439.165,83.0562
439.375,82.9519
439.586,82.7397
439.796,82.7821
440.006,82.6291
440.217,82.7214
440.427,82.7868
440.637,82.7283
440.848,82.5743
441.058,82.6048
441.268,82.7014
441.479,82.6535
441.689,82.7187
441.899,82.766
442.109,82.7159
442.319,82.7778
442.53,82.7711
442.74,82.6077
442.95,82.7593
443.16,82.658
443.37,82.7813
443.58,82.7189
443.791,82.9378
444.001,82.9333
444.211,82.9394
444.421,83.013
444.631,83.2072
444.841,83.3028
445.051,83.2681
445.261,83.1436
445.471,83.0805
445.681,83.1569
445.891,83.2229
446.101,83.1856
446.311,83.1212
446.521,82.9998
446.731,82.8789
446.941,82.9951
447.151,83.1558
447.361,83.0629
447.571,82.989
447.781,83.0988
447.991,83.0157
448.201,82.9951
448.41,83.2514
448.62,83.1648
448.83,83.2793
449.04,83.1624
449.25,83.3146
449.46,83.2286
449.669,83.1715
449.879,83.1139
450.089,83.0578
450.299,83.2549
450.508,83.1832
450.718,83.162
450.928,83.0093
451.138,82.9808
451.347,83.057
451.557,83.108
451.767,83.1281
451.976,83.1071
452.186,83.2396
452.396,83.1324
452.605,83.0644
452.815,83.2251
453.025,83.0743
453.234,83.076
453.444,83.0476
453.653,82.9977
453.863,82.8616
454.072,82.7652
454.282,82.8049
454.491,82.7071
454.701,82.8202
454.911,82.7412
455.12,82.7234
455.329,82.6843
455.539,82.8901
455.748,82.9168
455.958,82.8675
456.167,82.9496
456.377,82.9627
456.586,82.8139
456.795,82.7238
457.005,82.7856
457.214,82.8832
457.424,82.7939
457.633,82.7952
457.842,82.9121
458.052,82.979
458.261,82.8905
458.47,82.8789
458.679,82.8139
458.889,82.7905
459.098,82.7493
459.307,82.7088
459.517,82.7081
459.726,82.5991
459.935,82.6992
460.144,82.722
460.353,82.7079
460.563,82.7304
460.772,82.7088
460.981,82.7511
461.19,82.7489
461.399,82.604
461.608,82.4791
461.817,82.6941
462.026,82.7189
462.236,82.6914
462.445,82.7057
462.654,82.7776
462.863,82.8408
463.072,82.8451
463.281,82.9021
463.49,82.8361
463.699,83.0081
463.908,83.0038
464.117,82.8137
464.326,82.8551
464.535,83.0568
464.744,83.11
464.952,82.8208
465.161,82.7139
465.37,82.6623
465.579,82.519
465.788,82.3379
465.997,82.4471
466.206,82.3028
466.415,82.3234
466.623,82.4416
466.832,82.3513
467.041,82.4114
467.25,82.4064
467.459,82.3503
467.667,82.4202
467.876,82.4573
468.085,82.4296
468.294,82.3941
468.502,82.428
468.711,82.6173
468.92,82.6823
469.128,82.7748
469.337,82.7185
469.546,82.7245
469.754,82.767
469.963,82.9356
470.172,83.1404
470.38,83.0656
470.589,82.9553
470.798,82.9311
471.006,82.915
471.215,82.9309
471.423,82.9633
471.632,82.8357
471.84,82.7782
472.049,82.8463
472.257,82.9335
472.466,82.8433
472.674,82.9023
472.883,82.9684
473.091,82.743
473.3,82.7941
473.508,82.8369
473.716,82.8459
473.925,82.7907
474.133,82.9015
474.342,82.9486
474.55,83.0527
474.758,83.1263
474.967,82.9645
475.175,83.1728
475.383,83.3401
475.592,83.2789
475.8,83.055
476.008,82.8573
476.217,82.874
476.425,82.8545
476.633,82.668
476.841,82.602
477.05,82.5769
477.258,82.7654
477.466,82.7147
477.674,82.5649
477.882,82.6032
478.091,82.7006
478.299,82.6105
478.507,82.5162
478.715,82.6652
478.923,82.5563
479.131,82.6829
479.339,82.549
479.547,82.5918
479.755,82.6415
479.963,82.6892
480.171,82.7613
480.38,82.7071
480.588,82.8534
480.796,82.8524
481.004,82.572
481.212,82.5172
481.42,82.6639
481.627,82.8412
481.835,82.8604
482.043,82.9816
482.251,83.0024
482.459,83.0293
482.667,82.9572
482.875,82.9892
483.083,83.1758
483.291,83.1738
483.499,83.2437
483.706,83.2584
483.914,83.2781
484.122,83.2842
484.33,83.3077
484.538,83.3994
484.745,83.3723
484.953,83.162
485.161,83.069
485.369,83.143
485.576,83.4012
485.784,83.261
485.992,83.3659
486.199,83.2877
486.407,83.285
486.615,83.2361
486.822,83.144
487.03,83.1497
487.238,83.1167
487.445,83.0209
487.653,82.9961
487.861,83.0882
488.068,83.0242
488.276,82.9724
488.483,83.0091
488.691,83.0544
488.898,83.0878
489.106,82.9555
489.313,83.0079
489.521,83.2259
489.728,83.0758
489.936,83.144
490.143,83.2433
490.351,83.0739
490.558,83.1677
490.766,83.0574
490.973,83.1463
491.18,83.0132
491.388,83.0224
491.595,83.1243
491.802,83.2795
492.01,83.2706
492.217,83.0525
492.424,83.1993
492.632,83.1609
492.839,83.3407
493.046,83.2722
493.254,83.2404
493.461,83.1679
493.668,83.2467
493.875,83.4473
494.083,83.1997
494.29,83.3052
494.497,83.4607
494.704,83.325
494.911,83.3448
495.119,83.2793
495.326,83.3327
495.533,83.4171
495.74,83.4234
495.947,83.4318
496.154,83.4201
496.361,83.3252
496.568,83.1114
496.775,83.0664
496.982,83.0725
497.19,83.153
497.397,83.0373
497.604,83.0927
497.811,83.1016
498.018,83.1646
498.225,83.2101
498.432,83.1789
498.638,83.2147
498.845,83.5129
499.052,83.3293
499.259,83.4273
499.466,83.4723
499.673,83.3229
499.88,83.4161
500.087,83.4342
500.294,83.4452
500.501,83.4411
500.707,83.357
500.914,83.368
501.121,83.3988
501.328,83.339
501.535,83.5438
501.741,83.683
501.948,83.5956
502.155,83.7603
502.362,83.6957
502.568,83.7619
502.775,83.8831
502.982,83.8958
503.188,83.8988
503.395,83.9648
503.602,83.7183
503.808,83.6461
504.015,83.6681
504.222,83.5051
504.428,83.5066
504.635,83.7918
504.841,83.6789
505.048,83.6722
505.254,83.7093
505.461,83.7484
505.668,83.6355
505.874,83.8359
506.081,83.9626
506.287,83.6932
506.494,83.6388
506.7,83.809
506.907,84.0502
507.113,84.071
507.319,84.2008
507.526,84.4172
507.732,84.457
507.939,84.4788
508.145,84.4233
508.351,84.3043
508.558,84.2324
508.764,84.1705
508.97,84.1546
509.177,84.1324
509.383,84.0926
509.589,84.0841
509.796,83.9467
510.002,84.0883
510.208,84.0019
510.414,83.8326
510.621,83.7794
510.827,83.6893
511.033,83.7704
511.239,83.8369
511.445,83.7395
511.652,83.6836
511.858,83.6779
512.064,83.7032
512.27,83.7501
512.476,83.6626
512.682,83.7735
512.888,83.821
513.095,83.7668
513.301,83.7984
513.507,83.8242
513.713,83.7213
513.919,83.8045
514.125,83.7065
514.331,83.7984
514.537,83.813
514.743,83.8799
514.949,83.9278
515.155,83.9826
515.361,83.9037
515.567,83.9585
515.773,83.8511
515.978,83.8621
516.184,83.8495
516.39,83.6523
516.596,83.6148
516.802,83.5133
517.008,83.4165
517.214,83.4307
517.419,83.6345
517.625,83.6781
517.831,83.724
518.037,83.636
518.243,83.8114
518.448,83.9689
518.654,84.0906
518.86,84.0095
519.066,84.1884
519.271,84.1731
519.477,84.1562
519.683,84.1525
519.888,84.2239
520.094,84.188
520.3,83.9738
520.505,84.0671
520.711,84.1071
520.917,84.2654
521.122,84.3037
521.328,84.2133
521.533,84.2043
521.739,84.3598
521.944,84.3671
522.15,84.2283
522.356,84.2448
522.561,84.385
522.767,84.2605
522.972,84.08
523.177,84.0671
523.383,84.2887
523.588,84.2889
523.794,84.1872
523.999,84.0447
524.205,84.178
524.41,84.253
524.615,84.1136
524.821,84.1387
525.026,84.0851
525.232,84.0372
525.437,84.0684
525.642,84.0669
525.847,84.124
526.053,84.0694
526.258,84.1154
526.463,84.2084
526.669,84.2255
526.874,84.0747
527.079,83.7922
527.284,83.9096
527.49,83.992
527.695,83.9805
527.9,83.95
528.105,83.8014
528.31,83.7798
528.515,83.7391
528.721,83.8352
528.926,83.7407
529.131,83.638
529.336,83.6781
529.541,83.7672
529.746,83.8244
529.951,83.8412
530.156,83.9072
530.361,83.8179
530.566,83.8556
530.771,83.8377
530.976,83.738
531.181,83.8664
531.386,83.8556
531.591,83.7166
531.796,83.7499
532.001,83.7389
532.206,83.6394
532.411,83.6647
532.616,83.7423
532.821,83.6537
533.025,83.4947
533.23,83.302
533.435,83.2461
533.64,83.2151
533.845,83.1002
534.05,83.0994
534.254,83.0623
534.459,83.0809
534.664,82.9339
534.869,83.0497
535.073,83.0464
535.278,82.8502
535.483,82.8329
535.688,82.7587
535.892,82.7483
536.097,82.777
536.302,82.6527
536.506,82.7501
536.711,82.8327
536.916,82.7175
537.12,82.7194
537.325,82.8192
537.529,82.8223
537.734,82.8373
537.938,83.3509
538.143,83.6084
538.348,83.5842
538.552,83.3629
538.757,83.5628
538.961,83.6971
539.166,83.7442
539.37,83.8554
539.575,83.7651
539.779,83.712
539.983,83.7319
540.188,83.4823
540.392,83.4709
540.597,83.4888
540.801,83.4748
541.005,83.5161
541.21,83.3472
541.414,83.3855
541.618,83.4778
541.823,83.4786
542.027,83.4825
542.231,83.5838
542.436,83.4634
542.64,83.5353
542.844,83.3093
543.048,83.145
543.253,83.1558
543.457,82.9182
543.661,82.8579
543.865,82.7937
544.069,82.5816
544.274,82.5578
544.478,82.4844
544.682,82.54
544.886,82.6328
545.09,82.7626
545.294,82.669
545.498,82.8351
545.702,82.7416
545.907,82.4229
546.111,82.4528
546.315,82.4212
546.519,82.4636
546.723,82.3332
546.927,82.4074
547.131,82.3682
547.335,82.2181
547.539,82.4375
547.743,82.4634
547.947,82.5525
548.15,82.3485
548.354,82.3008
548.558,82.3132
548.762,82.1551
548.966,82.0065
549.17,82.0147
549.374,81.9493
549.578,81.8869
549.781,81.9525
549.985,81.9733
550.189,82.0444
550.393,82.237
550.597,82.2401
550.8,82.1604
551.004,82.2016
551.208,82.2979
551.412,82.3717
551.615,82.3772
551.819,82.4549
552.023,82.4345
552.226,82.379
552.43,82.3369
552.634,82.2348
552.837,82.2761
553.041,82.0781
553.244,82.0956
553.448,82.1781
553.652,82.2276
553.855,82.1663
554.059,82.2704
554.262,82.2478
554.466,82.3104
554.669,82.3554
554.873,82.3966
555.076,82.3709
555.28,82.2706
555.483,82.2594
555.687,82.1129
555.89,81.9358
556.094,81.6752
556.297,81.6037
556.5,81.5531
556.704,81.3706
556.907,81.4015
557.111,81.3547
557.314,81.1986
557.517,81.3043
557.721,81.3045
557.924,81.3534
558.127,81.1984
558.33,81.1012
558.534,81.0889
558.737,81.0198
558.94,80.8297
559.144,80.8401
559.347,80.854
559.55,80.7068
559.753,80.6209
559.956,80.4857
560.159,80.3949
560.363,80.6659
560.566,80.6769
560.769,80.6706
560.972,80.5905
561.175,80.6001
561.378,80.6757
561.581,80.5426
561.784,80.5055
561.987,80.3215
562.19,80.1271
562.394,80.1157
562.597,80.2891
562.8,80.1509
563.003,80.0619
563.205,80.078
563.408,80.1004
563.611,80.1251
563.814,80.3162
564.017,80.4711
564.22,80.3625
564.423,80.1509
564.626,80.1874
564.829,80.2593
565.032,80.3423
565.235,80.1513
565.437,80.0766
565.64,79.9643
565.843,80.0488
566.046,79.993
566.249,79.9667
566.451,79.8257
566.654,79.9178
566.857,79.9413
567.06,79.8779
567.262,80.0156
567.465,80.1874
567.668,80.2553
567.87,80.1355
568.073,80.1646
568.276,80.0495
568.478,79.993
568.681,80.069
568.884,79.9533
569.086,80.1033
569.289,80.0668
569.491,80.2341
569.694,80.1322
569.896,80.2683
570.099,80.4403
570.301,80.3023
570.504,80.2551
570.706,80.144
570.909,80.0792
571.111,80.0452
571.314,80.1756
571.516,80.1359
571.719,80.2047
571.921,80.0876
572.124,80.0354
572.326,79.9398
572.528,80.0236
572.731,80.0464
572.933,80.1601
573.135,80.3044
573.338,80.2565
573.54,80.1218
573.742,80.016
573.945,80.2098
574.147,80.2759
574.349,80.252
574.551,80.2267
574.754,80.2649
574.956,80.3417
575.158,80.1534
575.36,80.2962
575.562,80.4415
575.765,80.2596
575.967,80.2125
576.169,80.4452
576.371,80.4193
576.573,80.4886
576.775,80.3052
576.977,80.2375
577.179,80.2748
577.382,80.1591
577.584,80.1283
577.786,80.1672
577.988,80.3631
578.19,80.2494
578.392,80.2989
578.594,80.3802
578.796,80.0615
578.998,79.8991
579.2,79.8294
579.401,79.96
579.603,79.9005
579.805,79.7707
580.007,79.6513
580.209,79.3527
580.411,79.4076
580.613,79.537
580.815,79.5451
581.016,79.5698
581.218,79.6973
581.42,79.7479
581.622,79.8426
581.824,80.0093
582.025,80.2754
582.227,80.3529
582.429,80.187
582.631,80.1732
582.832,80.1921
583.034,80.1365
583.236,80.1412
583.437,80.1357
583.639,80.2302
583.841,80.2278
584.042,80.2928
584.244,80.4014
584.446,80.5165
584.647,80.6261
584.849,80.5605
585.05,80.4152
585.252,80.4735
585.453,80.3462
585.655,80.3947
585.856,80.2602
586.058,80.2512
586.259,80.2062
586.461,80.1469
586.662,80.2508
586.864,80.2926
587.065,80.487
587.267,80.4181
587.468,80.4998
587.67,80.7181
587.871,80.684
588.072,80.6264
588.274,80.6339
588.475,80.758
588.676,80.6213
588.878,80.6461
589.079,80.7519
589.28,80.7193
589.481,80.8006
589.683,80.7525
589.884,80.8354
590.085,80.9821
590.286,81.0743
590.488,81.0624
590.689,81.1083
590.89,81.0865
591.091,80.898
591.292,80.9874
591.494,80.9813
591.695,80.9797
591.896,80.9394
592.097,80.9082
592.298,80.8193
592.499,80.8283
592.7,80.9281
592.901,81.0031
593.102,81.169
593.303,81.3406
593.504,81.3404
593.705,81.5158
593.906,81.5401
594.107,81.6289
594.308,81.504
594.509,81.4248
594.71,81.3037
594.911,81.3854
595.112,81.3638
595.313,81.3807
595.514,81.4494
595.715,81.4547
595.915,81.5582
596.116,81.4696
596.317,81.7547
596.518,81.9589
596.719,82.0948
596.92,82.2731
597.12,82.4023
597.321,82.5716
597.522,82.7577
597.723,82.8039
597.923,82.9722
598.124,82.8632
598.325,83.0906
598.525,82.9052
598.726,83.0709
598.927,83.1968
599.127,83.2192
599.328,83.367
599.529,83.5296
599.729,83.5125
599.93,83.5479
600.13,83.5314
600.331,83.4907
600.531,83.5762
600.732,83.5866
600.933,83.4601
601.133,83.4342
601.334,83.4823
601.534,83.4448
601.734,83.4014
601.935,83.475
602.135,83.5145
602.336,83.4627
602.536,83.485
602.737,83.5703
602.937,83.5966
603.137,83.3822
603.338,83.3115
603.538,83.2881
603.738,83.3142
603.939,83.4727
604.139,83.4303
604.339,83.3333
604.54,83.2787
604.74,83.4034
604.94,83.4358
605.14,83.4197
605.341,83.2353
605.541,83.2999
605.741,83.2624
605.941,83.1558
606.141,83.2292
606.342,83.1345
606.542,83.2718
606.742,83.2001
606.942,83.2107
607.142,83.2005
607.342,83.2687
607.542,83.231
607.742,83.044
607.942,82.8005
608.142,82.7031
608.343,82.8343
608.543,82.9023
608.743,82.9066
608.943,82.7876
609.143,82.7126
609.342,82.8019
609.542,82.7672
609.742,82.8106
609.942,82.6863
610.142,82.6747
610.342,82.6289
610.542,82.5243
610.742,82.6882
610.942,82.6823
611.142,82.8017
611.341,82.8378
611.541,82.7344
611.741,82.4893
611.941,82.4693
612.141,82.422
612.34,82.5549
612.54,82.5788
612.74,82.745
612.94,82.6004
613.139,82.6224
613.339,82.3301
613.539,82.3367
613.738,82.2584
613.938,82.331
614.138,82.3705
614.337,82.2617
614.537,82.313
614.736,82.2541
614.936,82.3956
615.136,82.2717
615.335,82.1343
615.535,82.1757
615.734,82.2242
615.934,82.2549
616.133,82.2238
616.333,82.311
616.532,82.3742
616.732,82.5076
616.931,82.5064
617.131,82.7964
617.33,82.9555
617.529,83.0458
617.729,83.0505
617.928,83.1063
618.128,83.0289
618.327,82.8257
618.526,82.7395
618.726,82.8035
618.925,82.8596
619.124,82.8021
619.324,82.8777
619.523,82.9869
619.722,82.9735
619.921,83.0827
620.121,82.9867
620.32,83.2255
620.519,83.2908
620.718,83.3193
620.917,83.2092
621.117,83.184
621.316,83.1736
621.515,83.0609
621.714,83.0713
621.913,82.9268
622.112,82.9494
622.311,82.7271
622.51,82.7768
622.709,82.7705
622.909,82.8339
623.108,83.0038
623.307,82.8276
623.506,83.0065
623.705,83.0079
623.904,82.8901
624.103,82.7872
624.301,82.7927
624.5,82.7569
624.699,82.8337
624.898,82.7412
625.097,82.8337
625.296,83.0097
625.495,83.0171
625.694,82.9172
625.893,82.9832
626.091,83.0923
626.29,83.3152
626.489,83.1532
626.688,83.2341
626.887,83.1192
627.085,83.1084
627.284,82.8237
627.483,82.8983
627.682,82.7727
627.88,82.3742
628.079,82.3986
628.278,82.562
628.476,82.4803
628.675,82.3365
628.874,82.3094
629.072,82.2615
629.271,82.3187
629.47,82.4422
629.668,82.3554
629.867,82.3212
630.065,82.1396
630.264,82.1663
630.462,82.1066
630.661,82.0487
630.859,82.0514
631.058,82.1952
631.256,82.2992
631.455,82.6118
631.653,82.7522
631.852,82.7677
632.05,82.6332
632.249,82.6715
632.447,82.786
632.645,82.8437
632.844,82.7546
633.042,82.7183
633.24,82.5824
633.439,82.625
633.637,82.5686
633.835,82.4991
634.034,82.4907
634.232,82.3627
634.43,82.5221
634.628,82.648
634.827,82.6951
635.025,82.6635
635.223,82.7175
635.421,82.5908
635.62,82.5602
635.818,82.5284
636.016,82.439
636.214,82.4441
636.412,82.1814
636.61,82.044
636.808,82.1021
637.006,81.9328
637.205,81.892
637.403,82.009
637.601,81.7066
637.799,81.6385
637.997,81.6446
638.195,81.6383
638.393,81.3312
638.591,81.4078
638.789,81.3942
638.987,81.3887
639.184,81.3536
639.382,81.2634
639.58,81.1242
639.778,81.0716
639.976,80.9626
640.174,81.004
640.372,81.1672
640.57,81.1266
640.767,81.0877
640.965,80.9025
641.163,80.8562
641.361,80.9512
641.559,81.16
641.756,81.2465
641.954,81.0665
642.152,81.136
642.35,81.1839
642.547,81.0851
642.745,81.0928
642.943,81.1733
643.14,81.2522
643.338,81.2717
643.536,81.3942
643.733,81.3257
643.931,81.1431
644.128,81.0789
644.326,81.0561
644.524,81.0184
644.721,80.8462
644.919,80.9059
645.116,80.8913
645.314,80.9151
645.511,80.749
645.709,80.7384
645.906,80.887
646.104,81.0111
646.301,81.1539
646.498,80.9418
646.696,80.9752
646.893,80.9548
647.091,80.7613
647.288,80.6033
647.485,80.6842
647.683,80.7258
647.88,80.7329
648.077,80.8534
648.275,80.8146
648.472,80.7668
648.669,80.7293
648.867,80.7682
649.064,80.7898
649.261,80.9457
649.458,80.8911
649.655,80.9208
649.853,80.9208
650.05,80.8617
650.247,81.0569
650.444,81.1759
650.641,81.0445
650.838,81.1464
651.036,81.1753
651.233,81.0902
651.43,80.987
651.627,81.1823
651.824,81.0973
652.021,81.0987
652.218,81.0979
652.415,81.0855
652.612,80.8495
652.809,81.0529
653.006,80.9445
653.203,81.0904
653.4,81.0643
653.597,81.1666
653.794,81.2648
653.991,81.3983
654.187,81.3936
654.384,81.2405
654.581,81.2381
654.778,81.1929
654.975,81.2169
655.172,81.2778
655.369,81.1865
655.565,81.0366
655.762,80.9259
655.959,81.0031
656.156,80.961
656.352,80.6094
656.549,80.6946
656.746,80.5465
656.943,80.2765
657.139,80.2392
657.336,80.2567
657.533,80.2779
657.729,80.1312
657.926,80.2269
658.122,80.4752
658.319,80.6266
658.516,80.5803
658.712,80.694
658.909,80.7847
659.105,80.7164
659.302,80.6869
659.498,80.759
659.695,80.5834
659.891,80.5599
660.088,80.4953
660.284,80.587
660.481,80.6331
660.677,80.747
660.874,80.7551
661.07,80.812
661.266,80.8583
661.463,80.7509
661.659,80.6863
661.856,80.531
662.052,80.5628
662.248,80.3749
662.444,80.4199
662.641,80.3784
662.837,80.3733
663.033,80.575
663.23,80.3651
663.426,80.2435
663.622,80.3402
663.818,80.3248
664.014,80.3256
664.211,80.3345
664.407,80.2697
664.603,80.3186
664.799,80.3971
664.995,80.3643
665.191,80.2942
665.387,80.3957
665.584,80.3205
665.78,80.2543
665.976,80.1279
666.172,80.1943
666.368,80.1355
666.564,80.1463
666.76,80.2801
666.956,80.4466
667.152,80.4048
667.348,80.605
667.544,80.7452
667.74,80.6987
667.936,80.5114
668.131,80.5076
668.327,80.3885
668.523,80.5155
668.719,80.6082
668.915,80.4244
669.111,80.3266
669.307,80.4397
669.502,80.5993
669.698,80.8171
669.894,80.7529
670.09,80.8169
670.285,80.8358
670.481,80.8831
670.677,80.8153
670.873,80.6478
671.068,80.188
671.264,80.1617
671.46,80.1179
671.655,80.0173
671.851,80.0364
672.047,80.0315
672.242,79.8915
672.438,79.8206
672.633,79.8923
672.829,79.8538
673.025,79.7434
673.22,79.7489
673.416,79.7187
673.611,79.8149
673.807,79.8349
674.002,79.7234
674.198,79.7426
674.393,79.8086
674.589,79.7501
674.784,79.7151
674.979,79.753
675.175,79.6191
675.37,79.5643
675.566,79.6362
675.761,79.6282
675.956,79.6545
676.152,79.6875
676.347,79.6478
676.542,79.8068
676.738,79.8412
676.933,79.562
677.128,79.7279
677.323,79.8938
677.519,79.799
677.714,79.9221
677.909,80.0953
678.104,80.2302
678.299,80.3258
678.494,80.3207
678.69,80.2697
678.885,80.3044
679.08,80.3242
679.275,80.4847
679.47,80.3584
679.665,80.325
679.86,80.1487
680.055,80.099
680.25,80.091
680.445,80.2009
680.64,80.2848
680.835,80.1787
681.03,80.0124
681.225,80.0574
681.42,80.21
681.615,80.0939
681.81,80.0427
682.005,80.2928
682.2,80.2893
682.395,80.1583
682.59,80.2697
682.785,80.3292
682.979,80.2591
683.174,80.3307
683.369,80.2139
683.564,80.2543
683.759,80.1495
683.953,80.2962
684.148,80.4368
684.343,80.3023
684.538,80.4544
684.732,80.3364
684.927,80.4513
685.122,80.6007
685.316,80.6879
685.511,80.4982
685.706,80.4211
685.9,80.6667
686.095,80.6755
686.29,80.6151
686.484,80.7829
686.679,80.749
686.873,80.7733
687.068,80.7223
687.262,80.7443
687.457,80.6626
687.651,80.7264
687.846,80.7134
688.04,80.9039
688.235,80.8866
688.429,80.9481
688.624,80.6981
688.818,80.7767
689.013,80.7187
689.207,80.7144
689.401,80.7804
689.596,80.6139
689.79,80.6431
689.984,80.6378
690.179,80.609
690.373,80.6188
690.567,80.6204
690.762,80.7871
690.956,80.7635
691.15,80.8259
691.344,80.692
691.538,80.7142
691.733,80.662
691.927,80.8057
692.121,80.5893
692.315,80.6816
692.509,80.6506
692.703,80.6196
692.898,80.5365
693.092,80.6306
693.286,80.508
693.48,80.5088
693.674,80.5607
693.868,80.6319
694.062,80.6649
694.256,80.6767
694.45,80.6349
694.644,80.9131
694.838,80.9096
695.032,81.0606
695.226,80.961
695.42,80.8843
695.614,81.0716
695.808,81.0753
696.002,81.1757
696.195,81.2377
696.389,81.1056
696.583,81.1022
696.777,81.1692
696.971,81.1653
697.165,81.159
697.358,80.9412
697.552,80.7704
697.746,80.7608
697.94,80.7763
698.133,80.9015
698.327,80.8766
698.521,80.9398
698.715,80.6742
698.908,80.627
699.102,80.6875
699.296,80.6726
699.489,80.6341
699.683,80.4458
699.876,80.3814
700.07,80.3814
700.264,80.3551
700.457,80.3572
700.651,80.3837
700.844,80.5469
701.038,80.6182
701.231,80.706
701.425,80.672
701.618,80.7511
701.812,80.7462
702.005,80.6826
702.199,80.6903
702.392,80.8232
702.586,81.0408
702.779,80.9687
702.972,81.1097
703.166,81.2147
703.359,81.3218
703.552,81.198
703.746,81.1741
703.939,81.1796
704.132,81.1829
704.326,81.202
704.519,81.2039
704.712,81.2456
704.905,81.2925
705.099,81.3324
705.292,81.2723
705.485,81.4592
705.678,81.396
705.871,81.2248
706.064,81.1344
706.258,81.0311
706.451,80.8868
706.644,80.9261
706.837,81.0437
707.03,81.1425
707.223,81.1232
707.416,81.1827
707.609,80.9728
707.802,81.0304
707.995,81.0427
708.188,81.0378
708.381,80.911
708.574,80.9173
708.767,80.6412
708.96,80.4641
709.153,80.4717
709.346,80.5746
709.539,80.4203
709.732,80.292
709.924,80.3684
710.117,80.5171
710.31,80.3121
710.503,80.3735
710.696,80.5316
710.889,80.4609
711.081,80.454
711.274,80.574
711.467,80.6802
711.66,80.6247
711.852,80.5642
712.045,80.6614
712.238,80.6107
712.43,80.6907
712.623,80.4462
712.816,80.3362
713.008,80.4511
713.201,80.4721
713.394,80.3384
713.586,80.3894
713.779,80.3761
713.971,80.5703
714.164,80.5913
714.356,80.5691
714.549,80.6076
714.741,80.6178
714.934,80.6893
715.126,80.7121
715.319,80.619
715.511,80.458
715.704,80.2651
715.896,80.4821
716.088,80.3608
716.281,80.1803
716.473,80.273
716.666,80.1389
716.858,80.0067
717.05,79.8985
717.243,79.7538
717.435,79.7819
717.627,79.7236
717.819,79.7786
718.012,79.862
718.204,79.8928
718.396,80.0639
718.588,80.1212
718.781,80.1511
718.973,80.2797
719.165,80.2355
719.357,80.1842
719.549,80.0109
719.741,79.9166
719.934,79.829
720.126,79.778
720.318,79.7548
720.51,79.6596
720.702,79.616
720.894,79.613
721.086,79.7473
721.278,79.7471
721.47,79.713
721.662,79.7236
721.854,80.0242
722.046,79.9838
722.238,80.0686
722.43,80.069
722.622,80.2072
722.814,79.9629
723.005,79.9459
723.197,79.9396
723.389,79.7403
723.581,79.9292
723.773,79.8412
723.965,79.9217
724.156,79.8066
724.348,79.8432
724.54,79.8343
724.732,79.742
724.923,79.6871
725.115,79.7819
725.307,79.777
725.499,79.8958
725.69,79.785
725.882,79.9176
726.074,79.9333
726.265,80.0727
726.457,79.9091
726.648,79.9612
726.84,79.875
727.032,79.896
727.223,79.7729
727.415,79.8163
727.606,79.915
727.798,79.8895
727.989,79.7581
728.181,79.6973
728.372,79.7587
728.564,79.6798
728.755,79.7632
728.947,79.5734
729.138,79.462
729.329,79.4495
729.521,79.4226
729.712,79.325
729.904,79.3491
730.095,79.4556
730.286,79.4813
730.478,79.4412
730.669,79.419
730.86,79.6629
731.051,79.5793
731.243,79.5172
731.434,79.5779
731.625,79.7884
731.816,79.6081
732.008,79.7234
732.199,79.833
732.39,79.9439
732.581,79.8404
732.772,79.6835
732.963,79.7281
733.154,79.7297
733.346,79.5795
733.537,79.537
733.728,79.314
733.919,79.3768
734.11,79.4828
734.301,79.345
734.492,79.2908
734.683,79.1934
734.874,79.1828
735.065,79.2158
735.256,79.1241
735.447,79.1329
735.638,79.229
735.829,79.1129
736.019,79.0915
736.21,79.2437
736.401,79.1624
736.592,79.1109
736.783,79.0772
736.974,79.2323
737.164,79.0905
737.355,79.4004
737.546,79.4139
737.737,79.4173
737.928,79.2021
738.118,79.1869
738.309,79.3894
738.5,79.441
738.69,79.3745
738.881,79.3682
739.072,79.2932
739.262,79.321
739.453,79.3038
739.644,79.2366
739.834,79.0933
740.025,79.2543
740.215,79.2641
740.406,79.4135
740.596,79.3923
740.787,79.2688
740.978,79.2635
741.168,79.3397
741.358,79.3562
741.549,79.434
741.739,79.2741
741.93,79.2755
742.12,79.3546
742.311,79.3613
742.501,79.2722
742.691,79.1455
742.882,79.3265
743.072,79.2886
743.263,79.2256
743.453,79.1339
743.643,79.1492
743.833,79.2849
744.024,79.1064
744.214,79.1981
744.404,79.1702
744.594,79.2093
744.785,79.2682
744.975,79.3248
745.165,79.2767
745.355,79.0976
745.545,79.0387
745.736,78.927
745.926,78.8765
746.116,79.0153
746.306,78.9244
746.496,78.882
746.686,78.8606
746.876,78.76
747.066,78.5831
747.256,78.7838
747.446,78.9191
747.636,78.8981
747.826,78.8737
748.016,78.8553
748.206,78.9413
748.396,78.9395
748.586,78.8453
748.776,78.9764
748.966,78.894
749.156,78.829
749.346,78.8176
749.535,78.7809
749.725,78.6882
749.915,78.631
750.105,78.5545
750.295,78.6175
750.484,78.4861
750.674,78.5633
750.864,78.3883
751.054,78.6181
751.243,78.5617
751.433,78.5619
751.623,78.4437
751.812,78.4296
752.002,78.3903
752.192,78.3785
752.381,78.1659
752.571,78.1531
752.761,78.2515
752.95,78.2417
753.14,78.1364
753.329,78.0804
753.519,78.0109
753.708,78.2794
753.898,78.2739
754.087,78.2297
754.277,78.0583
754.466,78.1849
754.656,78.1533
754.845,78.1853
755.035,78.2458
755.224,78.4384
755.413,78.5749
755.603,78.5641
755.792,78.4655
755.982,78.6008
756.171,78.5364
756.36,78.5309
756.549,78.405
756.739,78.4429
756.928,78.5142
757.117,78.5651
757.307,78.6079
757.496,78.6784
757.685,78.643
757.874,78.8362
758.063,78.9165
758.253,78.9244
758.442,78.8111
758.631,78.6882
758.82,78.9232
759.009,78.9144
759.198,78.8543
759.387,78.8105
759.576,78.9234
759.765,78.9356
759.954,78.8942
760.143,78.6128
760.332,78.5091
760.521,78.6316
760.71,78.5038
760.899,78.4439
761.088,78.5199
761.277,78.5315
761.466,78.4374
761.655,78.4826
761.844,78.4822
762.033,78.7186
762.222,78.5484
762.411,78.4498
762.599,78.5806
762.788,78.5093
762.977,78.4182
763.166,78.5223
763.355,78.5733
763.543,78.6391
763.732,78.8474
763.921,78.9515
764.109,78.945
764.298,78.9022
764.487,78.8229
764.675,78.937
764.864,78.8788
765.053,78.9376
765.241,78.9798
765.43,78.8398
765.619,78.825
765.807,78.8282
765.996,78.5825
766.184,78.6949
766.373,78.8637
766.561,78.849
766.75,78.8131
766.938,78.7218
767.127,78.9711
767.315,79.116
767.504,79.1384
767.692,79.1793
767.881,79.3069
768.069,79.4175
768.257,79.3165
768.446,79.2174
768.634,79.3833
768.822,79.2174
769.011,79.173
769.199,79.1659
769.387,79.3097
769.576,79.2818
769.764,79.1135
769.952,79.0532
770.14,79.0524
770.328,79.0049
770.517,79.0499
770.705,79.1763
770.893,79.2667
771.081,79.2083
771.269,79.0923
771.457,79.106
771.646,79.1712
771.834,79.3904
772.022,79.4118
772.21,79.272
772.398,79.3071
772.586,79.3354
772.774,79.4667
772.962,79.3472
773.15,79.429
773.338,79.4055
773.526,79.2924
773.714,79.2983
773.902,79.4683
774.09,79.7195
774.278,79.6727
774.465,79.7466
774.653,79.7189
774.841,79.6405
775.029,79.5033
775.217,79.53
775.405,79.3348
775.592,79.3077
775.78,79.418
775.968,79.5683
776.156,79.4968
776.343,79.3248
776.531,79.3004
776.719,79.3709
776.907,79.4296
777.094,79.3892
777.282,79.3273
777.47,79.3554
777.657,79.4023
777.845,79.4261
778.032,79.4595
778.22,79.3332
778.408,79.1575
778.595,79.0475
778.783,79.1304
778.97,79.0982
779.158,78.8959
779.345,78.8142
779.533,78.7862
779.72,78.8881
779.908,78.7889
780.095,78.762
780.282,78.6428
780.47,78.6212
780.657,78.6169
780.845,78.3917
781.032,78.3929
781.219,78.3826
781.407,78.4889
781.594,78.3654
781.781,78.214
781.969,78.2725
782.156,78.2395
782.343,78.3051
782.53,78.3844
782.718,78.491
782.905,78.5625
783.092,78.5841
783.279,78.6448
783.466,78.6703
783.653,78.8478
783.841,79.1043
784.028,78.9778
784.215,79.0617
784.402,79.172
784.589,79.1479
784.776,79.196
784.963,79.2698
785.15,79.2048
785.337,79.2331
785.524,79.1304
785.711,79.0126
785.898,79.192
786.085,79.0725
786.272,79.0259
786.459,79.0401
786.646,79.1349
786.833,79.1589
787.02,79.1803
787.206,79.2462
787.393,79.2417
787.58,79.1907
787.767,79.207
787.954,79.2087
788.14,79.2021
788.327,79.2682
788.514,79.192
788.701,79.2097
788.887,78.9996
789.074,79.1484
789.261,79.0037
789.448,78.9303
789.634,79.0465
789.821,78.9817
790.008,78.9093
790.194,78.9297
790.381,79.0913
790.567,78.9878
790.754,78.945
790.94,79.099
791.127,78.9947
791.314,79.1854
791.5,78.873
791.687,78.8514
791.873,79.0483
792.059,79.2158
792.246,79.1241
792.432,79.1471
792.619,79.032
792.805,79.0548
792.992,78.7685
793.178,78.5389
793.364,78.6634
793.551,78.728
793.737,78.6369
793.923,78.6868
794.11,78.8111
794.296,78.9564
794.482,78.8076
794.668,78.5959
794.855,78.5719
795.041,78.5213
795.227,78.5435
795.413,78.645
795.599,78.6024
795.786,78.6391
795.972,78.5236
796.158,78.5639
796.344,78.6805
796.53,78.7418
796.716,78.5878
796.902,78.6206
797.088,78.5963
797.274,78.4557
797.46,78.3685
797.646,78.3618
797.832,78.5217
798.018,78.6477
798.204,78.5232
798.39,78.6065
798.576,78.5313
798.762,78.6114
798.948,78.5087
799.134,78.7538
799.32,78.6784
799.506,78.6886
799.692,78.6138
799.877,78.7165
800.063,78.837
800.249,78.8172
800.435,78.9016
800.621,78.9906
800.806,78.9213
800.992,78.7384
801.178,78.5303
801.363,78.232
801.549,78.1796
801.735,78.182
801.92,78.1882
802.106,78.1596
802.292,78.1181
802.477,78.0039
802.663,77.8611
802.849,77.6881
803.034,78.0164
803.22,78.19
803.405,77.9966
803.591,78.2904
803.776,78.2377
803.962,78.2069
804.147,78.2395
804.333,78.2375
804.518,78.3141
804.703,78.2342
804.889,78.1492
805.074,78.2403
805.26,78.2415
805.445,78.161
805.63,77.9677
805.816,78.2049
806.001,78.2843
806.186,78.2803
806.372,78.4724
806.557,78.384
806.742,78.4457
806.927,78.5022
807.113,78.6424
807.298,78.624
807.483,78.7002
807.668,78.6978
807.853,78.7273
808.039,78.6803
808.224,78.6281
808.409,78.6424
808.594,78.6306
808.779,78.7261
808.964,78.6854
809.149,78.6147
809.334,78.4671
809.519,78.4985
809.704,78.4895
809.889,78.5313
810.074,78.4975
810.259,78.5837
810.444,78.6933
810.629,78.603
810.814,78.6202
810.999,78.7104
811.184,78.687
811.369,78.6181
811.554,78.4783
811.738,78.5083
811.923,78.3828
812.108,78.3555
812.293,78.2493
812.478,78.3259
812.662,78.3367
812.847,78.3361
813.032,78.3964
813.217,78.2371
813.401,78.202
813.586,78.2915
813.771,78.3247
813.955,78.224
814.14,78.1755
814.325,78.0162
814.509,78.0319
814.694,78.0335
814.878,78.0832
815.063,78.0445
815.248,77.9964
815.432,77.78
815.617,77.9057
815.801,77.9852
815.986,78.0728
816.17,77.9844
816.355,78.0571
816.539,78.0614
816.723,78.1928
816.908,78.1111
817.092,78.052
817.277,78.0235
817.461,78.0394
817.645,78.1123
817.83,78.0355
818.014,78.0822
818.198,78.1773
818.383,78.1755
818.567,78.2175
818.751,78.006
818.935,77.9298
819.12,78.0914
819.304,78.0013
819.488,77.9791
819.672,77.844
819.856,77.6221
820.041,77.5118
820.225,77.2921
820.409,77.2021
820.593,77.2114
820.777,77.2622
820.961,77.24
821.145,77.0172
821.329,77.0863
821.513,77.0586
821.697,76.9753
821.881,76.9467
822.065,77.0158
822.249,77.0142
822.433,76.9304
822.617,76.9749
822.801,77.0863
822.985,77.284
823.169,77.2263
823.353,77.2644
823.536,77.4028
823.72,77.47
823.904,77.2758
824.088,77.3288
824.272,77.2102
824.456,77.1776
824.639,77.2414
824.823,77.253
825.007,77.0531
825.19,77.1073
825.374,77.1132
825.558,77.1992
825.742,77.1481
825.925,77.1544
826.109,77.3097
826.292,77.1375
826.476,77.1988
826.66,77.3029
826.843,77.2601
827.027,77.3093
827.21,77.4829
827.394,77.4918
827.577,77.2911
827.761,77.4164
827.944,77.4706
828.128,77.395
828.311,77.4442
828.495,77.2752
828.678,77.253
828.862,77.2184
829.045,77.2512
829.228,77.0975
829.412,77.0837
829.595,77.1018
829.778,77.3541
829.962,77.3777
830.145,77.4851
830.328,77.6846
830.512,77.6151
830.695,77.5045
830.878,77.492
831.061,77.3902
831.244,77.305
831.428,77.1055
831.611,77.1293
831.794,77.2471
831.977,77.2245
832.16,77.1507
832.343,77.036
832.526,77.122
832.709,77.0721
832.893,76.9708
833.076,77.081
833.259,77.0392
833.442,77.0238
833.625,76.8137
833.808,76.8823
833.991,76.7411
834.174,76.714
834.356,76.8053
834.539,76.7322
834.722,76.8406
834.905,76.6594
835.088,76.6832
835.271,76.6845
835.454,76.8544
835.637,76.8664
835.819,76.7959
836.002,76.83
836.185,76.7913
836.368,76.8508
836.551,76.7747
836.733,76.5801
836.916,76.4958
837.099,76.3001
837.281,76.2262
837.464,76.2885
837.647,76.23
837.829,76.2661
838.012,76.3093
838.195,76.3705
838.377,76.3348
838.56,76.3238
838.742,76.1559
838.925,76.1386
839.107,76.0536
839.29,76.0589
839.472,76.0558
839.655,76.0956
839.837,76.1375
840.02,75.9093
840.202,75.7251
840.385,75.8928
840.567,75.818
840.749,75.9539
840.932,76.0159
841.114,75.9558
841.297,75.8789
841.479,75.8859
841.661,75.8946
841.843,75.8421
842.026,75.7538
842.208,75.7807
842.39,75.7793
842.572,75.9093
842.755,75.7127
842.937,75.7131
843.119,75.6242
843.301,75.525
843.483,75.5784
843.666,75.6407
843.848,75.5896
844.03,75.3766
844.212,75.4467
844.394,75.4455
844.576,75.3703
844.758,75.2798
844.94,75.2931
845.122,75.3728
845.304,75.5788
845.486,75.6407
845.668,75.7532
845.85,75.71
846.032,75.7795
846.214,75.8965
846.396,75.7944
846.578,75.7025
846.759,75.6419
846.941,75.561
847.123,75.4015
847.305,75.3738
847.487,75.419
847.669,75.3512
847.85,75.2837
848.032,75.2599
848.214,75.2203
848.396,75.0602
848.577,74.9479
848.759,75.039
848.941,74.9913
849.122,75.0186
849.304,74.9432
849.486,75.0013
849.667,75.0881
849.849,75.032
850.03,75.1965
850.212,75.2588
850.394,75.1466
850.575,74.9625
850.757,75.0172
850.938,75.0235
851.12,75.0677
851.301,75.1773
851.483,75.1989
851.664,75.0983
851.845,75.0783
852.027,75.0524
852.208,75.1296
852.39,74.978
852.571,74.977
852.752,74.9092
852.934,75.1337
853.115,75.093
853.296,75.0856
853.478,75.2138
853.659,75.1704
853.84,75.1184
854.021,75.0375
854.203,74.9913
854.384,75.0679
854.565,75.1447
854.746,75.1345
854.927,75.1305
855.108,75.1015
855.29,75.1857
855.471,75.1559
855.652,75.3701
855.833,75.3326
856.014,75.3638
856.195,75.2672
856.376,75.341
856.557,75.6118
856.738,75.7155
856.919,75.8249
857.1,75.8404
857.281,75.7679
857.462,75.8046
857.643,75.6631
857.824,75.6452
858.005,75.5996
858.185,75.6513
858.366,75.7239
858.547,75.7966
858.728,75.7954
858.909,75.827
859.09,75.9478
859.27,75.9578
859.451,76.053
859.632,75.8891
859.813,75.8066
859.993,75.8243
860.174,75.9674
860.355,75.8956
860.535,75.8853
860.716,75.7777
860.897,75.9048
861.077,75.8987
861.258,75.8229
861.438,75.8722
861.619,76.1039
861.8,76.1198
861.98,76.089
862.161,75.9653
862.341,76.1669
862.522,76.2105
862.702,76.045
862.883,76.3063
863.063,76.3254
863.243,76.3961
863.424,76.456
863.604,76.3992
863.785,76.2105
863.965,76.3179
864.145,76.3847
864.326,76.2716
864.506,76.2207
864.686,76.3001
864.867,76.4134
865.047,76.3656
865.227,76.528
865.407,76.7456
865.588,76.6354
865.768,76.6237
865.948,76.5261
866.128,76.4809
866.308,76.2755
866.488,76.3568
866.669,76.4546
866.849,76.3713
867.029,76.4752
867.209,76.5096
867.389,76.5838
867.569,76.6875
867.749,76.55
867.929,76.6453
868.109,76.584
868.289,76.6333
868.469,76.53
868.649,76.6824
868.829,76.7026
869.009,76.6305
869.189,76.6525
869.369,76.6977
869.548,76.6623
869.728,76.7966
869.908,76.8228
870.088,76.7379
870.268,76.8856
870.448,76.9677
870.627,76.9353
870.807,76.9936
870.987,77.0843
871.167,77.0661
871.346,77.1193
871.526,76.9551
871.706,77.0527
871.885,76.9795
872.065,77.0521
872.245,77.0443
872.424,76.9614
872.604,77.0596
872.783,76.9938
872.963,76.9967
873.142,77.0664
873.322,77.2589
873.501,77.3082
873.681,77.2944
873.86,77.1142
874.04,77.1929
874.219,77.2063
874.399,77.3637
874.578,77.4116
874.758,77.49
874.937,77.4423
875.116,77.5727
875.296,77.4717
875.475,77.6449
875.654,77.5811
875.834,77.7329
876.013,77.6463
876.192,77.7431
876.372,77.8169
876.551,77.8012
876.73,77.8012
876.909,77.9367
877.088,77.9016
877.268,77.8595
877.447,77.7934
877.626,77.9208
877.805,77.8028
877.984,77.9155
878.163,78.0211
878.342,78.0359
878.521,78.0217
878.7,77.9171
878.879,77.9428
879.059,78.0914
879.238,78.0335
879.417,77.8974
879.595,77.9538
879.774,77.953
879.953,77.8112
880.132,77.7702
880.311,77.8028
880.49,77.7947
880.669,77.7531
880.848,77.6966
881.027,77.6995
881.205,77.6082
881.384,77.434
881.563,77.2176
881.742,77.1797
881.921,77.0509
882.099,77.2351
882.278,77.2068
882.457,77.1658
882.635,77.2094
882.814,77.3123
882.993,77.3865
883.171,77.3692
883.35,77.3015
883.529,77.4221
883.707,77.4731
883.886,77.7358
884.064,77.8474
884.243,77.8216
884.422,77.8061
884.6,77.8715
884.779,78.0335
884.957,77.8646
885.136,77.8576
885.314,77.8038
885.492,77.8558
885.671,77.8902
885.849,77.8269
886.028,77.8595
886.206,77.6673
886.384,77.5803
886.563,77.5793
886.741,77.8576
886.919,77.8124
887.098,77.878
887.276,77.8067
887.454,77.8603
887.632,77.8674
887.811,77.8271
887.989,77.7777
888.167,77.7755
888.345,77.9473
888.523,78.0082
888.702,78.0447
888.88,78.063
889.058,77.8933
889.236,77.9334
889.414,77.9424
889.592,77.8894
889.77,77.8434
889.948,77.9206
890.126,78.0958
890.304,78.1346
890.482,78.1551
890.66,78.1765
890.838,78.2153
891.016,78.1873
891.194,78.321
891.372,78.2305
891.55,78.365
891.728,78.1615
891.905,78.1213
892.083,78.0009
892.261,78.0903
892.439,78.2654
892.617,78.0877
892.794,77.9618
892.972,77.9997
893.15,78.0881
893.328,78.2601
893.505,78.1478
893.683,78.2839
893.861,78.3304
894.038,78.4781
894.216,78.6085
894.394,78.6748
894.571,78.7025
894.749,78.8496
894.926,78.8217
895.104,78.7271
895.281,78.6964
895.459,78.5521
895.637,78.61
895.814,78.6874
895.992,78.8264
896.169,78.6087
896.346,78.5835
896.524,78.6835
896.701,78.7106
896.879,78.6766
897.056,78.6487
897.233,78.7108
897.411,78.8877
897.588,78.8965
897.765,78.7443
897.943,78.6956
898.12,78.7944
898.297,78.826
898.475,78.7459
898.652,78.924
898.829,78.7836
899.006,78.708
899.183,78.5001
899.361,78.4596
899.538,78.4973
899.715,78.6063
899.892,78.688
900.069,78.7068
900.246,78.7575
900.423,78.763
900.6,78.5829
900.777,78.655
900.954,78.7675
901.131,78.7479
901.308,78.5682
901.485,78.644
901.662,78.7461
901.839,78.8411
902.016,78.8783
902.193,78.8327
902.37,78.8553
902.547,78.8759
902.724,78.9749
902.9,78.8802
903.077,78.8569
903.254,78.8896
903.431,78.9008
903.608,78.968
903.784,78.9517
903.961,78.9945
904.138,78.8946
904.315,79.098
904.491,78.9462
904.668,79.0342
904.845,79.0585
905.021,78.9067
905.198,79.0291
905.375,79.0436
905.551,79.087
905.728,79.0556
905.904,79.2024
906.081,79.2162
906.257,79.1879
906.434,79.206
906.61,79.0348
906.787,79.0754
906.963,78.9908
907.14,78.9152
907.316,78.8317
907.493,78.7398
907.669,78.665
907.845,78.6012
908.022,78.7316
908.198,78.806
908.374,78.6138
908.551,78.557
908.727,78.752
908.903,78.7659
909.08,78.6795
909.256,78.7328
909.432,78.8486
909.608,78.9393
909.785,78.8747
909.961,78.8278
910.137,78.6729
910.313,78.6835
910.489,78.7756
910.665,78.7844
910.841,78.6744
911.018,78.8074
911.194,78.6324
911.37,78.6972
911.546,78.6069
911.722,78.5556
911.898,78.5352
912.074,78.5093
912.25,78.4779
912.426,78.4351
912.602,78.4215
912.777,78.3675
912.953,78.4355
913.129,78.6426
913.305,78.6601
913.481,78.6475
913.657,78.5855
913.833,78.5607
914.008,78.5778
914.184,78.5248
914.36,78.6589
914.536,78.592
914.712,78.4465
914.887,78.4853
915.063,78.5052
915.239,78.6636
915.414,78.5943
915.59,78.6591
915.766,78.7186
915.941,78.8629
916.117,78.8417
916.292,78.948
916.468,79.0721
916.644,79.1439
916.819,79.2064
916.995,79.4253
917.17,79.366
917.346,79.399
917.521,79.4638
917.697,79.3423
917.872,79.3513
918.048,79.4
918.223,79.3187
918.398,79.4722
918.574,79.4336
918.749,79.6829
918.924,79.7008
919.1,79.5567
919.275,79.531
919.45,79.3752
919.626,79.3764
919.801,79.3637
919.976,79.333
920.151,79.4296
920.327,79.3393
920.502,79.4764
920.677,79.4255
920.852,79.4766
921.027,79.3203
921.202,79.2857
921.378,79.247
921.553,79.2246
921.728,79.2608
921.903,79.3102
922.078,79.269
922.253,79.1408
922.428,79.1805
922.603,79.2916
922.778,79.4273
922.953,79.4104
923.128,79.3546
923.303,79.3915
923.478,79.5916
923.652,79.7974
923.827,79.6338
924.002,79.6144
924.177,79.519
924.352,79.484
924.527,79.4876
924.702,79.4442
924.876,79.3721
925.051,79.2761
925.226,79.3346
925.401,79.1306
925.575,79.0831
925.75,79.235
925.925,79.1575
926.099,79.0041
926.274,78.9702
926.449,78.9509
926.623,78.924
926.798,78.8578
926.972,78.9236
927.147,79.1245
927.322,79.1135
927.496,79.2366
927.671,79.2246
927.845,79.1223
928.02,79.03
928.194,79.149
928.368,79.0373
928.543,78.9091
928.717,78.7689
928.892,78.6994
929.066,78.5427
929.24,78.5692
929.415,78.3689
929.589,78.2629
929.763,78.2153
929.938,78.1708
930.112,78.1694
930.286,78.2
930.461,78.3078
930.635,78.2648
930.809,78.2261
930.983,78.2142
931.157,78.1584
931.332,78.0777
931.506,78.2297
931.68,78.2472
931.854,78.2833
932.028,78.2803
932.202,78.2381
932.376,78.3693
932.55,78.4001
932.724,78.073
932.898,77.9481
933.072,78.0494
933.246,78.2466
933.42,78.0934
933.594,77.8721
933.768,77.9071
933.942,77.7455
934.116,77.7753
934.29,77.7582
934.464,77.9192
934.638,77.9155
934.811,77.9662
934.985,77.866
935.159,77.6736
935.333,77.6435
935.507,77.6351
935.68,77.5016
935.854,77.5536
936.028,77.4299
936.201,77.4297
936.375,77.4768
936.549,77.4623
936.722,77.4272
936.896,77.3455
937.07,77.2498
937.243,77.3741
937.417,77.5083
937.59,77.437
937.764,77.2532
937.938,77.2308
938.111,77.1819
938.285,77.2872
938.458,77.1517
938.631,77.1819
938.805,77.146
938.978,77.1505
939.152,77.2033
939.325,77.3965
939.499,77.3598
939.672,77.381
939.845,77.275
940.019,77.1509
940.192,77.3017
940.365,77.0979
940.538,77.1945
940.712,77.189
940.885,77.201
941.058,77.305
941.231,77.352
941.405,77.4782
941.578,77.4018
941.751,77.4539
941.924,77.4311
942.097,77.3893
942.27,77.4882
942.443,77.7468
942.617,77.7056
942.79,77.855
942.963,77.8073
943.136,77.7775
943.309,77.7484
943.482,77.739
943.655,77.8747
943.828,77.7319
944.001,77.7398
944.173,77.6591
944.346,77.6801
944.519,77.5208
944.692,77.5613
944.865,77.5116
945.038,77.5958
945.211,77.6206
945.383,77.6208
945.556,77.4872
945.729,77.5481
945.902,77.6086
946.075,77.5925
946.247,77.6626
946.42,77.671
946.593,77.6404
946.765,77.7074
946.938,77.6928
947.111,77.8222
947.283,77.9206
947.456,77.7352
947.628,77.5923
947.801,77.805
947.974,77.6392
948.146,77.4678
948.319,77.3747
948.491,77.6163
948.664,77.5253
948.836,77.4949
949.009,77.6182
949.181,77.6135
949.353,77.6025
949.526,77.5935
949.698,77.6487
949.871,77.6911
950.043,77.7034
950.215,77.5656
950.388,77.5493
950.56,77.7356
950.732,77.6966
950.904,77.599
951.077,77.6064
951.249,77.6636
951.421,77.6883
951.593,77.7105
951.766,77.7392
951.938,77.8737
952.11,77.9548
952.282,78.0518
952.454,78.0035
952.626,78.1058
952.798,78.1574
952.97,78.0779
953.142,78.1087
953.314,77.9344
953.487,77.9283
953.659,77.8747
953.83,77.9104
954.002,77.934
954.174,77.8941
954.346,77.8397
954.518,77.7032
954.69,77.7352
954.862,77.8727
955.034,77.8167
955.206,77.9186
955.378,77.9438
955.549,78.049
955.721,77.9179
955.893,77.9827
956.065,77.9273
956.236,78.1456
956.408,78.1977
956.58,78.2287
956.752,78.1696
956.923,78.3701
957.095,78.3023
957.267,78.3226
957.438,78.1454
957.61,78.1557
957.781,78.0484
957.953,78.007
958.125,78.0058
958.296,77.9365
958.468,77.8456
958.639,77.858
958.811,77.9933
958.982,78.1965
959.154,78.2203
959.325,78.1468
959.496,78.114
959.668,78.1433
959.839,78.1816
960.011,78.2391
960.182,78.4445
960.353,78.4035
960.525,78.2077
960.696,78.1376
960.867,78.3442
961.038,78.3899
961.21,78.6224
961.381,78.5009
961.552,78.5649
961.723,78.4997
961.895,78.2959
962.066,78.1631
962.237,78.2587
962.408,78.3094
962.579,78.286
962.75,78.3938
962.921,78.4518
963.092,78.5694
963.263,78.5535
963.434,78.4967
963.605,78.5099
963.776,78.5492
963.947,78.5012
964.118,78.4806
964.289,78.3793
964.46,78.3163
964.631,78.2242
964.802,78.1089
964.973,78.0412
965.144,77.9306
965.315,77.8091
965.485,77.7244
965.656,77.6781
965.827,77.6382
965.998,77.5306
966.169,77.347
966.339,77.4782
966.51,77.4099
966.681,77.5621
966.851,77.6496
967.022,77.4986
967.193,77.3443
967.363,77.5524
967.534,77.4505
967.705,77.4982
967.875,77.404
968.046,77.4116
968.216,77.4389
968.387,77.6219
968.557,77.5004
968.728,77.5267
968.898,77.7019
969.069,77.6828
969.239,77.7246
969.41,77.7515
969.58,77.7861
969.751,77.8238
969.921,78.0064
970.091,77.9868
970.262,78.2242
970.432,78.307
970.602,78.3663
970.773,78.398
970.943,78.3982
971.113,78.5918
971.283,78.5336
971.454,78.4598
971.624,78.6949
971.794,78.6613
971.964,78.6306
972.134,78.5236
972.305,78.7002
972.475,78.6656
972.645,78.7029
972.815,78.688
972.985,78.8378
973.155,78.7402
973.325,78.8773
973.495,78.8476
973.665,78.8904
973.835,78.7041
974.005,78.5733
974.175,78.677
974.345,78.5706
974.515,78.6495
974.685,78.5867
974.855,78.6308
975.024,78.6002
975.194,78.3709
975.364,78.2629
975.534,78.0926
975.704,77.9029
975.874,77.7623
976.043,77.8156
976.213,77.7951
976.383,77.7525
976.553,77.769
976.722,78.0673
976.892,77.9585
977.062,78.0537
977.231,77.8169
977.401,78.0082
977.57,77.9338
977.74,77.9717
977.91,77.9359
978.079,77.9882
978.249,77.9183
978.418,77.8874
978.588,77.9534
978.757,77.9864
978.927,78.1128
979.096,77.9958
979.266,78.0396
979.435,78.0465
979.604,78.1784
979.774,78.2615
979.943,78.3222
980.113,78.2953
980.282,78.2395
980.451,78.1659
980.621,78.2085
980.79,78.1264
980.959,78.1073
981.128,78.0859
981.298,78.0465
981.467,77.8872
981.636,77.844
981.805,78.0245
981.974,78.1417
982.143,77.9385
982.313,77.8405
982.482,77.8191
982.651,77.8181
982.82,77.6687
982.989,77.7131
983.158,77.6911
983.327,77.6636
983.496,77.6968
983.665,77.6622
983.834,77.6076
984.003,77.6267
984.172,77.5685
984.341,77.6163
984.51,77.5601
984.679,77.5475
984.847,77.3441
985.016,77.3229
985.185,77.2887
985.354,77.2129
985.523,77.1634
985.692,77.1937
985.86,77.1102
986.029,77.0686
986.198,76.8819
986.366,76.8334
986.535,76.6684
986.704,76.7104
986.873,76.6657
987.041,76.6478
987.21,76.6535
987.378,76.7301
987.547,76.8618
987.716,76.8298
987.884,76.6392
988.053,76.6645
988.221,76.7328
988.39,76.8803
988.558,76.8263
988.727,76.8196
988.895,76.7542
989.064,76.5716
989.232,76.5797
989.4,76.4886
989.569,76.435
989.737,76.4342
989.905,76.4917
990.074,76.549
990.242,76.5608
990.41,76.3458
990.579,76.2207
990.747,76.1422
990.915,76.1575
991.083,75.9594
991.252,75.9452
991.42,75.9853
991.588,76.066
991.756,76.0992
991.924,76.1381
992.092,76.1677
992.261,76.226
992.429,76.1571
992.597,76.1897
992.765,76.2005
992.933,76.1121
993.101,75.8382
993.269,75.8044
993.437,75.7858
993.605,75.7962
993.773,75.8948
993.941,75.6786
994.109,75.712
994.277,75.6424
994.444,75.5812
994.612,75.5763
994.78,75.6642
994.948,75.5639
995.116,75.5776
995.284,75.3206
995.451,75.3263
995.619,75.3766
995.787,75.3501
995.955,75.4223
996.122,75.5156
996.29,75.5547
996.458,75.5547
996.625,75.5482
996.793,75.5209
996.961,75.4294
997.128,75.2629
997.296,75.2829
997.463,75.3279
997.631,75.2969
997.798,75.3505
997.966,75.427
998.133,75.5028
998.301,75.7047
998.468,75.7622
998.636,75.8152
998.803,75.7182
998.971,75.8337
999.138,75.8068
999.305,75.9134
999.473,76.2298
999.64,76.3617
999.807,76.3971
999.975,76.4273
1000.14,76.4147
1000.31,76.3209
1000.48,76.4795
1000.64,76.3287
1000.81,76.1905
1000.98,76.3336
1001.15,76.4732
1001.31,76.3211
1001.48,76.4043
1001.65,76.3036
1001.81,76.2005
1001.98,76.3342
1002.15,76.4477
1002.32,76.4721
1002.48,76.7083
1002.65,76.6835
1002.82,76.5477
1002.98,76.4823
1003.15,76.4607
1003.32,76.3776
1003.48,76.3802
1003.65,76.4434
1003.82,76.2663
1003.98,76.3148
1004.15,76.1606
1004.32,76.1369
1004.49,76.0363
1004.65,76.0768
1004.82,76.0181
1004.99,75.9391
1005.15,76.1473
1005.32,76.1481
1005.49,75.9615
1005.65,75.9851
1005.82,75.8105
1005.99,75.8386
1006.15,75.7773
1006.32,75.6375
1006.49,75.6538
1006.65,75.6393
1006.82,75.5146
1006.99,75.4406
1007.15,75.4653
1007.32,75.4394
1007.49,75.2643
1007.65,75.3803
1007.82,75.3944
1007.98,75.4865
1008.15,75.6112
1008.32,75.677
1008.48,75.7265
1008.65,75.8247
1008.82,75.9346
1008.98,76.0843
1009.15,76.1789
1009.32,76.2802
1009.48,76.3012
1009.65,76.3945
1009.81,76.5041
1009.98,76.5596
1010.15,76.5414
1010.31,76.4823
1010.48,76.2013
1010.65,76.2865
1010.81,76.3016
1010.98,76.3978
1011.14,76.2598
1011.31,76.3309
1011.48,76.3146
1011.64,76.3301
1011.81,76.2046
1011.97,76.2859
1012.14,76.3262
1012.31,76.2419
1012.47,76.1646
1012.64,75.991
1012.8,75.9067
1012.97,75.8518
1013.14,75.7406
1013.3,75.8048
1013.47,75.6668
1013.63,75.6762
1013.8,75.6442
1013.97,75.6829
1014.13,75.7821
1014.3,75.6428
1014.46,75.5517
1014.63,75.47
1014.79,75.6305
1014.96,75.7434
1015.13,75.9154
1015.29,75.9433
1015.46,75.7956
1015.62,75.7634
1015.79,75.686
1015.95,75.8007
1016.12,75.8178
1016.29,75.8225
1016.45,75.8694
1016.62,75.7893
1016.78,75.8207
1016.95,75.8117
1017.11,75.7917
1017.28,75.7416
1017.44,75.7673
1017.61,75.8596
1017.78,75.8315
1017.94,75.7697
1018.11,75.9309
1018.27,75.9333
1018.44,75.9448
1018.6,75.8565
1018.77,75.7681
1018.93,75.7691
1019.1,75.5875
1019.26,75.4135
1019.43,75.4312
1019.59,75.3725
1019.76,75.2823
1019.92,75.2615
1020.09,75.385
1020.25,75.3605
1020.42,75.3342
1020.59,75.2747
1020.75,75.1508
1020.92,75.1162
1021.08,75.0653
1021.25,75.1684
1021.41,75.4158
1021.58,75.4834
1021.74,75.5095
1021.91,75.3177
1022.07,75.3222
1022.24,75.2855
1022.4,75.3789
1022.57,75.3459
1022.73,75.3736
1022.89,75.3259
1023.06,75.4408
1023.22,75.3697
1023.39,75.4155
1023.55,75.3597
1023.72,75.3929
1023.88,75.472
1024.05,75.5319
1024.21,75.5916
1024.38,75.6175
1024.54,75.6703
1024.71,75.8048
1024.87,75.7683
1025.04,75.7
1025.2,75.6006
1025.37,75.6882
1025.53,75.8681
1025.7,75.7665
1025.86,75.7444
1026.02,75.6018
1026.19,75.6118
1026.35,75.6902
1026.52,75.8376
1026.68,75.915
1026.85,75.9843
1027.01,76.1139
1027.18,76.0693
1027.34,76.2553
1027.5,70.8036
1027.67,68.7147
1027.83,93.3313
1028,71.8276
1028.16,68.5918
1028.33,67.9774
1028.49,81.3302
1028.65,78.8726
1028.82,70.0254
1028.98,67.8136
1029.15,58.6797
1029.31,48.3579
1029.48,64.2501
1029.64,63.7177
1029.8,108.281
1029.97,69.3291
1030.13,95.9117
1030.3,64.8645
1030.46,77.8487
1030.62,82.4361
1030.79,59.335
1030.95,47.4978
1031.12,45.4498
1031.28,92.7988
1031.44,93.0036
1031.61,99.2294
1031.77,75.7188
1031.94,60.4819
1032.1,82.1494
1032.26,66.2981
1032.43,72.8516
1032.59,69.3701
1032.76,76.456
1032.92,92.635
1033.08,68.428
1033.25,76.4151
1033.41,90.2184
1033.57,75.5959
1033.74,60.0723
1033.9,69.5749
1034.07,104.104
1034.23,76.0055
1034.39,53.8874
1034.56,105.865
1034.72,67.1583
1034.88,79.7328
1035.05,60.5638
1035.21,59.8675
1035.37,66.9125
1035.54,57.6147
1035.7,57.1642
1035.86,79.8557
1036.03,64.6597
1036.19,64.5369
1036.35,61.2601
1036.52,87.556
1036.68,79.3642
1036.84,73.2612
1037.01,72.442
1037.17,55.6077
1037.33,71.1313
1037.5,80.7568
1037.66,84.6889
1037.82,103.94
1037.99,91.8977
1038.15,92.8398
1038.31,65.1922
1038.48,61.6697
1038.64,59.2531
1038.8,78.0535
1038.97,50.9793
1039.13,84.2793
1039.29,66.5439
1039.46,91.2424
1039.62,70.9675
1039.78,73.0154
1039.95,76.6199
1040.11,77.1523
1040.27,83.8287
1040.43,71.6638
1040.6,71.7867
1040.76,73.9166
1040.92,67.404
1041.09,83.7878
1041.25,82.4361
1041.41,77.7667
1041.57,77.48
1041.74,96.1985
1041.9,105.537
1042.06,61.5878
1042.23,67.9365
1042.39,60.5228
1042.55,83.0915
1042.71,95.2154
1042.88,86.7778
1043.04,81.4121
1043.2,75.3501
1043.36,105.087
1043.53,80.7977
1043.69,86.2863
EndSpectrumFile,RAW DATA
SpectrumFile,DIFF DATA
Version,1.000000
Location,home
Customer,rudolf
SampleInfo,USB4000 dark
GPSData,51.118460,-114.185342,1173.000000,8278,230311
SystemTime,2011,3,23,2,29,25,265
Pipe km,0.000000
Pre-Dilution Factor,1.000000
Freeform Info,
Concentration,-9.073558
CalibrationName,USB4000 dark
Unique Calibration File ID,20110323-0226570968-TESTBOX2-7E963C-00008931
CalibrationWavelength,700.000000
CalibrationType,2,0.000000,0.616679
CalibrationRSquared,1.000000
CalibrationConcentrations [ppm],2,0.000000,10.000000
CalibrationCounts,2,0.000000,16.215900
CalibrationWarnLow,0.000000
CalibrationWarnHigh,10.000000
CalibrationErrorLow,0.000000
CalibrationErrorHigh,0.000000
Spectrometer Name,USB4000
Spectrometer Serial,USB4H02759
IntegrationTime [ms],50.000000
AveragedSpectra,50
BoxcarWidth,100
WavelengthRange [nm],346.775360,1043.690197
IntensityRange [counts],-35.042891,10.053381
WavelengthCount,3648
Wavelength [nm],Intensity [counts]
346.775,-20.789
346.991,-20.789
347.206,-20.789
347.421,-21.6901
347.637,-16.816
347.852,-5.63406
348.067,-18.0038
348.282,-27.916
348.498,-27.834
348.713,-2.60307
348.928,-12.5152
349.143,-24.0658
349.358,-17.758
349.574,-19.1916
349.789,-16.3654
350.004,-18.1676
350.219,-21.9359
350.434,-14.0717
350.649,-11.6551
350.864,-19.9698
351.079,-0.0635846
351.295,-27.7931
351.51,-34.8381
351.725,-16.5702
351.94,-4.97871
352.155,-14.8499
352.37,-4.97871
352.585,-18.5363
352.8,-5.06063
353.015,-8.46026
353.23,-14.768
353.445,-10.0986
353.66,-18.2086
353.875,-18.0448
354.09,-17.6761
354.305,-16.0377
354.52,-10.1396
354.735,-17.5532
354.949,-15.792
355.164,-0.677975
355.379,-20.4204
355.594,-26.7281
355.809,-20.9529
356.024,-13.4163
356.239,-12.761
356.453,-16.0377
356.668,-16.2425
356.883,-25.4174
357.098,-9.23848
357.313,-17.3894
357.527,-35.0429
357.742,-13.4573
357.957,-19.765
358.172,-16.816
358.386,-12.5562
358.601,-7.96874
358.816,-14.6451
359.03,-14.3174
359.245,-14.8499
359.46,-1.21045
359.674,-19.806
359.889,-9.40232
360.104,-16.9798
360.318,-2.88978
360.533,-18.0038
360.748,-13.0477
360.962,-11.2865
361.177,-31.6842
361.391,-33.9779
361.606,-4.2824
361.82,-11.737
362.035,-16.4473
362.25,-5.67502
362.464,-31.1518
362.679,-7.96874
362.893,-5.01967
363.108,-11.6551
363.322,-9.64808
363.536,-16.3245
363.751,-29.5134
363.965,1.1652
364.18,-15.2186
364.394,-17.7171
364.609,-6.73996
364.823,-9.19753
365.037,-12.6791
365.252,-14.2765
365.466,-11.3274
365.68,-16.5702
365.895,-9.07465
366.109,-15.792
366.323,-16.2835
366.538,-20.1746
366.752,-5.10159
366.966,0.26409
367.181,-11.9418
367.395,-5.26543
367.609,-16.816
367.823,-12.2695
368.038,-22.9189
368.252,-14.3246
368.466,-14.2997
368.68,-14.2708
368.894,-14.2251
369.109,-14.2614
369.323,-14.2545
369.537,-14.2916
369.751,-14.2294
369.965,-14.1165
370.179,-14.0057
370.393,-14.0821
370.607,-14.0605
370.822,-13.9782
371.036,-14.0095
371.25,-13.9977
371.464,-13.9282
371.678,-13.8979
371.892,-13.8384
372.106,-13.8461
372.32,-13.9019
372.534,-13.8681
372.748,-13.9753
372.962,-13.8993
373.176,-13.8096
373.39,-13.7644
373.604,-13.8463
373.818,-13.8188
374.031,-13.8854
374.245,-13.8549
374.459,-13.9631
374.673,-13.9926
374.887,-14.0085
375.101,-14.056
375.315,-14.1271
375.529,-14.1098
375.742,-14.0957
375.956,-14.0124
376.17,-13.99
376.384,-14.0154
376.598,-14.0542
376.811,-14.184
377.025,-14.209
377.239,-14.2044
377.453,-14.1336
377.666,-14.1575
377.88,-14.1787
378.094,-14.1722
378.307,-14.0855
378.521,-14.0099
378.735,-14.0197
378.948,-14.0336
379.162,-13.9354
379.376,-13.9056
379.589,-13.9079
379.803,-13.8339
380.016,-13.8465
380.23,-13.8706
380.444,-13.842
380.657,-13.8496
380.871,-13.8231
381.084,-13.903
381.298,-13.9184
381.511,-13.9013
381.725,-13.8583
381.938,-13.9013
382.152,-13.8553
382.365,-13.8913
382.579,-13.8873
382.792,-13.8337
383.006,-13.6641
383.219,-13.7222
383.433,-13.7575
383.646,-13.7198
383.859,-13.7452
384.073,-13.7159
384.286,-13.7886
384.5,-13.8088
384.713,-13.8567
384.926,-13.9097
385.14,-13.9087
385.353,-13.7943
385.566,-13.8852
385.779,-13.9254
385.993,-13.894
386.206,-13.9639
386.419,-13.9718
386.633,-13.9788
386.846,-13.9729
387.059,-13.969
387.272,-13.9295
387.485,-13.9509
387.699,-13.9327
387.912,-14.0065
388.125,-13.9427
388.338,-13.9559
388.551,-14.0283
388.764,-14.024
388.978,-14.0462
389.191,-14.037
389.404,-14.0953
389.617,-14.079
389.83,-14.0919
390.043,-14.0275
390.256,-14.0244
390.469,-14.1241
390.682,-14.1907
390.895,-14.1697
391.108,-14.1648
391.321,-14.1092
391.534,-14.1634
391.747,-14.1351
391.96,-14.1312
392.173,-14.1681
392.386,-14.1455
392.599,-14.1687
392.812,-14.1868
393.025,-14.228
393.238,-14.1911
393.451,-14.2787
393.663,-14.3443
393.876,-14.4069
394.089,-14.4695
394.302,-14.5408
394.515,-14.543
394.728,-14.5785
394.941,-14.565
395.153,-14.5328
395.366,-14.5557
395.579,-14.576
395.792,-14.6107
396.004,-14.6311
396.217,-14.7344
396.43,-14.8293
396.643,-14.8929
396.855,-14.8729
397.068,-14.9019
397.281,-14.8766
397.493,-14.7768
397.706,-14.7698
397.919,-14.7627
398.131,-14.7609
398.344,-14.789
398.557,-14.7596
398.769,-14.7776
398.982,-14.7927
399.194,-14.8685
399.407,-14.9451
399.619,-15.0857
399.832,-15.1101
400.045,-15.0926
400.257,-15.1269
400.47,-15.0543
400.682,-15.0796
400.895,-15.0853
401.107,-15.0347
401.319,-15.1128
401.532,-15.1319
401.744,-15.1038
401.957,-15.0932
402.169,-15.0527
402.382,-15.0877
402.594,-15.1319
402.806,-15.1505
403.019,-15.2171
403.231,-15.2063
403.444,-15.1444
403.656,-15.0812
403.868,-15.1057
404.081,-15.1185
404.293,-15.0688
404.505,-14.9616
404.717,-14.9023
404.93,-14.8477
405.142,-14.9373
405.354,-14.9538
405.566,-14.9439
405.779,-14.9056
405.991,-14.8681
406.203,-14.8297
406.415,-14.8662
406.627,-14.8807
406.84,-15.0111
407.052,-14.9891
407.264,-14.8621
407.476,-14.8575
407.688,-14.9198
407.9,-14.8974
408.112,-14.9858
408.324,-14.9591
408.537,-14.9074
408.749,-14.9506
408.961,-14.9591
409.173,-14.888
409.385,-14.8134
409.597,-14.6957
409.809,-14.6812
410.021,-14.7488
410.233,-14.811
410.445,-14.8086
410.657,-14.8147
410.869,-14.8538
411.081,-14.951
411.292,-14.986
411.504,-15.0019
411.716,-15.0341
411.928,-15.0178
412.14,-15.0449
412.352,-15.103
412.564,-15.104
412.776,-15.1849
412.988,-15.1821
413.199,-15.2023
413.411,-15.2495
413.623,-15.2768
413.835,-15.2754
414.047,-15.2414
414.258,-15.2493
414.47,-15.2603
414.682,-15.252
414.894,-15.1756
415.105,-15.1034
415.317,-15.1161
415.529,-15.1876
415.74,-15.2025
415.952,-15.2078
416.164,-15.2104
416.375,-15.1482
416.587,-15.1515
416.799,-15.1185
417.01,-15.0423
417.222,-15.0276
417.433,-14.9946
417.645,-14.9773
417.857,-14.9231
418.068,-14.8136
418.28,-14.8057
418.491,-14.8475
418.703,-14.9689
418.914,-15.0162
419.126,-14.9412
419.337,-14.8183
419.549,-14.7823
419.76,-14.6724
419.972,-14.6455
420.183,-14.6468
420.394,-14.5789
420.606,-14.5764
420.817,-14.5196
421.029,-14.5693
421.24,-14.5634
421.451,-14.6349
421.663,-14.5983
421.874,-14.6086
422.085,-14.5899
422.297,-14.563
422.508,-14.64
422.719,-14.6427
422.931,-14.6777
423.142,-14.7244
423.353,-14.6637
423.565,-14.6781
423.776,-14.6494
423.987,-14.6264
424.198,-14.6476
424.409,-14.6635
424.621,-14.6916
424.832,-14.7717
425.043,-14.7307
425.254,-14.8065
425.465,-14.8088
425.676,-14.9261
425.888,-14.9227
426.099,-14.9053
426.31,-14.9369
426.521,-14.943
426.732,-14.9579
426.943,-14.8787
427.154,-14.9043
427.365,-14.8764
427.576,-14.8299
427.787,-14.8705
427.998,-14.8772
428.209,-14.8275
428.42,-14.7819
428.631,-14.7823
428.842,-14.7244
429.053,-14.673
429.264,-14.7034
429.475,-14.6859
429.686,-14.7183
429.897,-14.7142
430.108,-14.7963
430.319,-14.811
430.529,-14.7625
430.74,-14.811
430.951,-14.8026
431.162,-14.7778
431.373,-14.823
431.584,-14.8766
431.794,-14.8642
432.005,-14.8872
432.216,-14.8807
432.427,-14.9043
432.637,-14.9106
432.848,-14.9102
433.059,-14.897
433.27,-14.8736
433.48,-14.971
433.691,-15.0313
433.902,-15.0007
434.112,-15.0142
434.323,-14.9172
434.534,-14.9017
434.744,-14.9363
434.955,-14.8903
435.166,-14.8424
435.376,-14.8534
435.587,-14.8691
435.797,-14.8393
436.008,-14.8028
436.218,-14.8575
436.429,-14.7154
436.64,-14.6584
436.85,-14.5781
437.061,-14.597
437.271,-14.6007
437.482,-14.4937
437.692,-14.5449
437.902,-14.5526
438.113,-14.6038
438.323,-14.5443
438.534,-14.5371
438.744,-14.4839
438.955,-14.487
439.165,-14.4032
439.375,-14.3904
439.586,-14.3937
439.796,-14.3729
440.006,-14.5237
440.217,-14.5577
440.427,-14.5365
440.637,-14.5019
440.848,-14.5125
441.058,-14.4886
441.268,-14.4962
441.479,-14.4949
441.689,-14.5041
441.899,-14.5153
442.109,-14.4375
442.319,-14.4646
442.53,-14.4034
442.74,-14.3847
442.95,-14.3511
443.16,-14.3448
443.37,-14.3488
443.58,-14.3315
443.791,-14.2545
444.001,-14.1986
444.211,-14.1719
444.421,-14.1662
444.631,-14.2141
444.841,-14.2078
445.051,-14.1285
445.261,-14.1306
445.471,-14.1116
445.681,-14.1614
445.891,-14.1734
446.101,-14.2384
446.311,-14.2942
446.521,-14.2376
446.731,-14.3038
446.941,-14.3052
447.151,-14.3873
447.361,-14.3586
447.571,-14.3568
447.781,-14.3301
447.991,-14.3816
448.201,-14.4267
448.41,-14.4521
448.62,-14.5385
448.83,-14.5063
449.04,-14.5316
449.25,-14.4872
449.46,-14.52
449.669,-14.5972
449.879,-14.6241
450.089,-14.5284
450.299,-14.499
450.508,-14.4947
450.718,-14.5002
450.928,-14.4972
451.138,-14.4674
451.347,-14.5375
451.557,-14.5689
451.767,-14.6042
451.976,-14.7323
452.186,-14.7142
452.396,-14.6492
452.605,-14.6313
452.815,-14.6105
453.025,-14.6001
453.234,-14.6378
453.444,-14.6463
453.653,-14.618
453.863,-14.6072
454.072,-14.5691
454.282,-14.5182
454.491,-14.4939
454.701,-14.4265
454.911,-14.4823
455.12,-14.4792
455.329,-14.4674
455.539,-14.4043
455.748,-14.3547
455.958,-14.3537
456.167,-14.2995
456.377,-14.3733
456.586,-14.3672
456.795,-14.3867
457.005,-14.3949
457.214,-14.4179
457.424,-14.5121
457.633,-14.6036
457.842,-14.5041
458.052,-14.5229
458.261,-14.5076
458.47,-14.5047
458.679,-14.5622
458.889,-14.496
459.098,-14.5261
459.307,-14.6129
459.517,-14.5308
459.726,-14.5553
459.935,-14.5188
460.144,-14.5123
460.353,-14.4953
460.563,-14.5349
460.772,-14.5243
460.981,-14.5055
461.19,-14.5043
461.399,-14.5842
461.608,-14.6661
461.817,-14.6533
462.026,-14.7698
462.236,-14.7996
462.445,-14.7289
462.654,-14.7859
462.863,-14.8124
463.072,-14.8823
463.281,-14.8332
463.49,-14.8648
463.699,-14.7627
463.908,-14.8004
464.117,-14.7874
464.326,-14.8279
464.535,-14.8079
464.744,-14.7906
464.952,-14.8077
465.161,-14.8422
465.37,-14.822
465.579,-14.9221
465.788,-14.9681
465.997,-14.9952
466.206,-15.0292
466.415,-15.0494
466.623,-15.004
466.832,-14.9989
467.041,-15.0146
467.25,-15.0763
467.459,-15.0068
467.667,-14.9769
467.876,-14.9911
468.085,-15.0048
468.294,-14.9968
468.502,-14.9856
468.711,-14.9524
468.92,-14.8915
469.128,-14.8868
469.337,-14.8768
469.546,-14.8982
469.754,-14.9388
469.963,-14.8797
470.172,-14.9219
470.38,-14.9873
470.589,-14.9569
470.798,-14.9648
471.006,-14.9386
471.215,-15.027
471.423,-14.983
471.632,-15.08
471.84,-15.1116
472.049,-15.1167
472.257,-15.0327
472.466,-15.0103
472.674,-14.9695
472.883,-14.9327
473.091,-15.0023
473.3,-14.9687
473.508,-14.9532
473.716,-14.9677
473.925,-15.0072
474.133,-14.9308
474.342,-14.9039
474.55,-14.7986
474.758,-14.8503
474.967,-14.7878
475.175,-14.7578
475.383,-14.8
475.592,-14.7423
475.8,-14.7647
476.008,-14.8738
476.217,-14.8418
476.425,-14.9769
476.633,-14.9769
476.841,-14.9202
477.05,-14.9443
477.258,-14.9314
477.466,-14.8699
477.674,-14.7872
477.882,-14.8564
478.091,-14.7872
478.299,-14.7959
478.507,-14.8281
478.715,-14.8165
478.923,-14.8312
479.131,-14.8422
479.339,-14.8703
479.547,-14.9681
479.755,-14.9023
479.963,-14.918
480.171,-14.9347
480.38,-14.971
480.588,-14.9695
480.796,-14.997
481.004,-15.036
481.212,-15.0097
481.42,-15.025
481.627,-15.0311
481.835,-15.0653
482.043,-14.9508
482.251,-14.8998
482.459,-14.8161
482.667,-14.8566
482.875,-14.8316
483.083,-14.8738
483.291,-14.8359
483.499,-14.8147
483.706,-14.7417
483.914,-14.6596
484.122,-14.6017
484.33,-14.5785
484.538,-14.583
484.745,-14.6164
484.953,-14.6663
485.161,-14.6453
485.369,-14.5465
485.576,-14.574
485.784,-14.6027
485.992,-14.6201
486.199,-14.7005
486.407,-14.6887
486.615,-14.6616
486.822,-14.6553
487.03,-14.716
487.238,-14.7484
487.445,-14.747
487.653,-14.7493
487.861,-14.7374
488.068,-14.6592
488.276,-14.6512
488.483,-14.7189
488.691,-14.7364
488.898,-14.744
489.106,-14.6942
489.313,-14.7482
489.521,-14.6472
489.728,-14.6792
489.936,-14.604
490.143,-14.51
490.351,-14.5667
490.558,-14.5546
490.766,-14.4925
490.973,-14.4856
491.18,-14.4385
491.388,-14.3558
491.595,-14.3156
491.802,-14.2881
492.01,-14.3531
492.217,-14.4554
492.424,-14.3918
492.632,-14.4607
492.839,-14.5438
493.046,-14.6056
493.254,-14.5606
493.461,-14.52
493.668,-14.5114
493.875,-14.4479
494.083,-14.4438
494.29,-14.4599
494.497,-14.4295
494.704,-14.4982
494.911,-14.5147
495.119,-14.5178
495.326,-14.5332
495.533,-14.4854
495.74,-14.5159
495.947,-14.5298
496.154,-14.5002
496.361,-14.5204
496.568,-14.5204
496.775,-14.4823
496.982,-14.3835
497.19,-14.3994
497.397,-14.4884
497.604,-14.5155
497.811,-14.5642
498.018,-14.6521
498.225,-14.6172
498.432,-14.69
498.638,-14.615
498.845,-14.5709
499.052,-14.6734
499.259,-14.5518
499.466,-14.4947
499.673,-14.5377
499.88,-14.5573
500.087,-14.5459
500.294,-14.6268
500.501,-14.6205
500.707,-14.7444
500.914,-14.7036
501.121,-14.7124
501.328,-14.7105
501.535,-14.6696
501.741,-14.7289
501.948,-14.7725
502.155,-14.7521
502.362,-14.7093
502.568,-14.6649
502.775,-14.6156
502.982,-14.6103
503.188,-14.551
503.395,-14.4882
503.602,-14.4737
503.808,-14.3894
504.015,-14.3393
504.222,-14.4165
504.428,-14.3427
504.635,-14.2113
504.841,-14.1656
505.048,-14.2445
505.254,-14.237
505.461,-14.3119
505.668,-14.2757
505.874,-14.2127
506.081,-14.2111
506.287,-14.2088
506.494,-14.1432
506.7,-14.1112
506.907,-14.0617
507.113,-14.0935
507.319,-14.0142
507.526,-13.9427
507.732,-13.9765
507.939,-14.0018
508.145,-14.0126
508.351,-14.079
508.558,-14.0906
508.764,-14.0603
508.97,-13.916
509.177,-13.9977
509.383,-14.0393
509.589,-13.9566
509.796,-13.9121
510.002,-13.9488
510.208,-13.9523
510.414,-13.9584
510.621,-13.9991
510.827,-14.0246
511.033,-14.0258
511.239,-13.9892
511.445,-14.0032
511.652,-13.9698
511.858,-13.9466
512.064,-13.9272
512.27,-13.9443
512.476,-13.9268
512.682,-13.9655
512.888,-13.9195
513.095,-13.8985
513.301,-13.8757
513.507,-13.8563
513.713,-13.9105
513.919,-13.8799
514.125,-13.9026
514.331,-13.9187
514.537,-13.9081
514.743,-13.8691
514.949,-13.881
515.155,-13.8714
515.361,-13.8382
515.567,-13.8249
515.773,-13.8439
515.978,-13.8247
516.184,-13.8579
516.39,-13.8241
516.596,-13.829
516.802,-13.84
517.008,-13.7475
517.214,-13.6876
517.419,-13.6358
517.625,-13.6046
517.831,-13.637
518.037,-13.5514
518.243,-13.4769
518.448,-13.4331
518.654,-13.375
518.86,-13.4117
519.066,-13.379
519.271,-13.4997
519.477,-13.4573
519.683,-13.4604
519.888,-13.4145
520.094,-13.4381
520.3,-13.5349
520.505,-13.5922
520.711,-13.5722
520.917,-13.5604
521.122,-13.5971
521.328,-13.5916
521.533,-13.5213
521.739,-13.5038
521.944,-13.506
522.15,-13.6048
522.356,-13.6034
522.561,-13.5867
522.767,-13.6533
522.972,-13.6694
523.177,-13.687
523.383,-13.6688
523.588,-13.6898
523.794,-13.6855
523.999,-13.7224
524.205,-13.7273
524.41,-13.735
524.615,-13.6672
524.821,-13.68
525.026,-13.7526
525.232,-13.7717
525.437,-13.8329
525.642,-13.8946
525.847,-13.8812
526.053,-13.9001
526.258,-13.8384
526.463,-13.8186
526.669,-13.8775
526.874,-13.8793
527.079,-13.915
527.284,-13.8812
527.49,-13.8496
527.695,-13.7357
527.9,-13.7132
528.105,-13.7397
528.31,-13.722
528.515,-13.7734
528.721,-13.741
528.926,-13.7593
529.131,-13.7707
529.336,-13.8323
529.541,-13.8889
529.746,-13.8642
529.951,-13.85
530.156,-13.8172
530.361,-13.809
530.566,-13.8043
530.771,-13.8176
530.976,-13.8826
531.181,-13.7809
531.386,-13.8054
531.591,-13.8958
531.796,-13.8763
532.001,-13.8671
532.206,-13.9509
532.411,-13.9072
532.616,-13.914
532.821,-13.9421
533.025,-14.0034
533.23,-14.0499
533.435,-14.0913
533.64,-14.0187
533.845,-14.0385
534.05,-14.0493
534.254,-13.9737
534.459,-13.8755
534.664,-13.9462
534.869,-14.015
535.073,-13.9325
535.278,-13.9643
535.483,-14.0053
535.688,-13.9969
535.892,-13.979
536.097,-13.8983
536.302,-13.8549
536.506,-13.885
536.711,-13.797
536.916,-13.8155
537.12,-13.8137
537.325,-13.8437
537.529,-13.8801
537.734,-13.8306
537.938,-13.8306
538.143,-13.7829
538.348,-13.8922
538.552,-13.9339
538.757,-13.8304
538.961,-13.8365
539.166,-13.7939
539.37,-13.6796
539.575,-13.6723
539.779,-13.689
539.983,-13.8045
540.188,-13.9136
540.392,-13.8212
540.597,-13.8973
540.801,-13.8702
541.005,-13.7888
541.21,-13.8045
541.414,-13.7838
541.618,-13.6562
541.823,-13.6254
542.027,-13.5924
542.231,-13.5828
542.436,-13.6154
542.64,-13.655
542.844,-13.6725
543.048,-13.6778
543.253,-13.7047
543.457,-13.8062
543.661,-13.7884
543.865,-13.8422
544.069,-13.8683
544.274,-13.8975
544.478,-13.906
544.682,-13.907
544.886,-13.8854
545.09,-13.9125
545.294,-13.9727
545.498,-13.9331
545.702,-14.0059
545.907,-14.0656
546.111,-14.0884
546.315,-14.0906
546.519,-14.0807
546.723,-14.0521
546.927,-14.0807
547.131,-14.1599
547.335,-14.1993
547.539,-14.1995
547.743,-14.2832
547.947,-14.2473
548.15,-14.2742
548.354,-14.2885
548.558,-14.3185
548.762,-14.3857
548.966,-14.3382
549.17,-14.2853
549.374,-14.3036
549.578,-14.2861
549.781,-14.2922
549.985,-14.2675
550.189,-14.4089
550.393,-14.2997
550.597,-14.2374
550.8,-14.2243
551.004,-14.23
551.208,-14.2376
551.412,-14.2276
551.615,-14.2349
551.819,-14.2052
552.023,-14.251
552.226,-14.1988
552.43,-14.1681
552.634,-14.1071
552.837,-14.1455
553.041,-14.2382
553.244,-14.142
553.448,-14.162
553.652,-14.1982
553.855,-14.1642
554.059,-14.1883
554.262,-14.1986
554.466,-14.1261
554.669,-14.0913
554.873,-14.0876
555.076,-14.1579
555.28,-14.231
555.483,-14.1406
555.687,-14.2215
555.89,-14.2981
556.094,-14.3792
556.297,-14.4362
556.5,-14.4373
556.704,-14.4413
556.907,-14.4193
557.111,-14.4014
557.314,-14.4179
557.517,-14.4646
557.721,-14.499
557.924,-14.5322
558.127,-14.6207
558.33,-14.7154
558.534,-14.6842
558.737,-14.6891
558.94,-14.6708
559.144,-14.7217
559.347,-14.7081
559.55,-14.7323
559.753,-14.7782
559.956,-14.7731
560.159,-14.799
560.363,-14.6645
560.566,-14.5936
560.769,-14.5919
560.972,-14.5542
561.175,-14.5691
561.378,-14.5579
561.581,-14.5084
561.784,-14.5129
561.987,-14.5868
562.19,-14.5343
562.394,-14.5467
562.597,-14.6337
562.8,-14.616
563.003,-14.6445
563.205,-14.5288
563.408,-14.5233
563.611,-14.4925
563.814,-14.4002
564.017,-14.433
564.22,-14.393
564.423,-14.393
564.626,-14.3448
564.829,-14.3637
565.032,-14.4018
565.235,-14.4456
565.437,-14.4727
565.64,-14.5322
565.843,-14.5877
566.046,-14.5999
566.249,-14.626
566.451,-14.5485
566.654,-14.4915
566.857,-14.5055
567.06,-14.4988
567.262,-14.476
567.465,-14.5035
567.668,-14.4442
567.87,-14.477
568.073,-14.3955
568.276,-14.4346
568.478,-14.4538
568.681,-14.4503
568.884,-14.4984
569.086,-14.4739
569.289,-14.5066
569.491,-14.3676
569.694,-14.4208
569.896,-14.3763
570.099,-14.3625
570.301,-14.3132
570.504,-14.2763
570.706,-14.2592
570.909,-14.2675
571.111,-14.2374
571.314,-14.2855
571.516,-14.3258
571.719,-14.2687
571.921,-14.3633
572.124,-14.3757
572.326,-14.3676
572.528,-14.3319
572.731,-14.3213
572.933,-14.2345
573.135,-14.2105
573.338,-14.2257
573.54,-14.2329
573.742,-14.2795
573.945,-14.239
574.147,-14.2135
574.349,-14.2243
574.551,-14.2308
574.754,-14.261
574.956,-14.2618
575.158,-14.2965
575.36,-14.3798
575.562,-14.2824
575.765,-14.2052
575.967,-14.2335
576.169,-14.2231
576.371,-14.226
576.573,-14.2814
576.775,-14.2734
576.977,-14.3229
577.179,-14.3755
577.382,-14.346
577.584,-14.4595
577.786,-14.4326
577.988,-14.3916
578.19,-14.3348
578.392,-14.3303
578.594,-14.3892
578.796,-14.4157
578.998,-14.4733
579.2,-14.392
579.401,-14.3751
579.603,-14.4275
579.805,-14.4564
580.007,-14.4621
580.209,-14.4964
580.411,-14.4856
580.613,-14.4043
580.815,-14.4045
581.016,-14.349
581.218,-14.3513
581.42,-14.2551
581.622,-14.2276
581.824,-14.2168
582.025,-14.1724
582.227,-14.1982
582.429,-14.2895
582.631,-14.2207
582.832,-14.2365
583.034,-14.3225
583.236,-14.3293
583.437,-14.2916
583.639,-14.2973
583.841,-14.2997
584.042,-14.2704
584.244,-14.2141
584.446,-14.2443
584.647,-14.1919
584.849,-14.1885
585.05,-14.2166
585.252,-14.1819
585.453,-14.3154
585.655,-14.3505
585.856,-14.3827
586.058,-14.3749
586.259,-14.4367
586.461,-14.4206
586.662,-14.4581
586.864,-14.4297
587.065,-14.3839
587.267,-14.4151
587.468,-14.4638
587.67,-14.3924
587.871,-14.3688
588.072,-14.3727
588.274,-14.4128
588.475,-14.4079
588.676,-14.4438
588.878,-14.4094
589.079,-14.4041
589.28,-14.4051
589.481,-14.3001
589.683,-14.2449
589.884,-14.1467
590.085,-14.119
590.286,-14.2174
590.488,-14.1781
590.689,-14.1239
590.89,-14.0291
591.091,-14.0802
591.292,-13.9936
591.494,-14.0207
591.695,-14.0411
591.896,-14.0373
592.097,-14.0493
592.298,-14.0945
592.499,-14.0866
592.7,-14.0466
592.901,-14.0619
593.102,-14.0644
593.303,-14.1014
593.504,-14.0531
593.705,-13.9883
593.906,-14.0373
594.107,-14.0283
594.308,-14.0381
594.509,-14.0821
594.71,-14.0768
594.911,-14.1004
595.112,-14.0862
595.313,-14.0756
595.514,-14.0603
595.715,-14.0073
595.915,-13.9765
596.116,-14.0978
596.317,-14.0144
596.518,-13.9792
596.719,-13.9521
596.92,-13.8687
597.12,-13.8086
597.321,-13.7573
597.522,-13.7277
597.723,-13.7444
597.923,-13.7638
598.124,-13.7267
598.325,-13.6684
598.525,-13.6376
598.726,-13.6124
598.927,-13.547
599.127,-13.6052
599.328,-13.644
599.529,-13.5881
599.729,-13.4687
599.93,-13.5476
600.13,-13.5624
600.331,-13.5806
600.531,-13.5457
600.732,-13.5918
600.933,-13.5661
601.133,-13.6863
601.334,-13.7053
601.534,-13.7277
601.734,-13.6896
601.935,-13.5794
602.135,-13.5417
602.336,-13.5274
602.536,-13.5158
602.737,-13.5213
602.937,-13.5127
603.137,-13.4989
603.338,-13.4612
603.538,-13.4618
603.738,-13.5195
603.939,-13.4787
604.139,-13.4422
604.339,-13.5266
604.54,-13.5025
604.74,-13.5476
604.94,-13.6313
605.14,-13.6444
605.341,-13.7626
605.541,-13.7216
605.741,-13.689
605.941,-13.6368
606.141,-13.6325
606.342,-13.6311
606.542,-13.5353
606.742,-13.4923
606.942,-13.583
607.142,-13.6517
607.342,-13.6419
607.542,-13.6872
607.742,-13.7442
607.942,-13.754
608.142,-13.8341
608.343,-13.8736
608.543,-13.8907
608.743,-13.8738
608.943,-13.8669
609.143,-13.9024
609.342,-13.9017
609.542,-13.9068
609.742,-13.9553
609.942,-14.0752
610.142,-14.0059
610.342,-14.0966
610.542,-14.0095
610.742,-14.0093
610.942,-14.0195
611.142,-14.0615
611.341,-14.0794
611.541,-14.1243
611.741,-14.0858
611.941,-14.0882
612.141,-14.1122
612.34,-13.9588
612.54,-13.9415
612.74,-13.9608
612.94,-13.9932
613.139,-13.9932
613.339,-14.173
613.539,-14.1811
613.738,-14.1732
613.938,-14.1744
614.138,-14.1956
614.337,-14.1159
614.537,-14.0623
614.736,-13.9971
614.936,-14.0124
615.136,-14.0419
615.335,-14.0381
615.535,-14.0311
615.734,-13.9708
615.934,-14.0008
616.133,-14.0328
616.333,-14.1446
616.532,-14.0615
616.732,-14.1131
616.931,-14.0169
617.131,-14.046
617.33,-13.9769
617.529,-13.9492
617.729,-13.8887
617.928,-13.7854
618.128,-13.8541
618.327,-13.8879
618.526,-13.9201
618.726,-13.886
618.925,-13.8137
619.124,-13.8997
619.324,-13.871
619.523,-13.8589
619.722,-13.9203
619.921,-13.8642
620.121,-13.8889
620.32,-13.7809
620.519,-13.7754
620.718,-13.754
620.917,-13.8119
621.117,-13.7866
621.316,-13.8155
621.515,-13.904
621.714,-14.0081
621.913,-14.0456
622.112,-14.1332
622.311,-14.1375
622.51,-14.0886
622.709,-14.0825
622.909,-14.2202
623.108,-14.1711
623.307,-14.1436
623.506,-14.0597
623.705,-14.1314
623.904,-14.1559
624.103,-14.1587
624.301,-14.1338
624.5,-14.2376
624.699,-14.262
624.898,-14.2989
625.097,-14.3331
625.296,-14.2015
625.495,-14.262
625.694,-14.2439
625.893,-14.2457
626.091,-14.1907
626.29,-14.1296
626.489,-14.1224
626.688,-14.1349
626.887,-14.1255
627.085,-14.1434
627.284,-14.1683
627.483,-14.1485
627.682,-14.1318
627.88,-14.1905
628.079,-14.153
628.278,-14.066
628.476,-14.0295
628.675,-14.0483
628.874,-14.1016
629.072,-14.098
629.271,-14.0809
629.47,-14.0044
629.668,-14.123
629.867,-14.186
630.065,-14.2924
630.264,-14.209
630.462,-14.1701
630.661,-14.231
630.859,-14.2802
631.058,-14.3694
631.256,-14.388
631.455,-14.3871
631.653,-14.3818
631.852,-14.379
632.05,-14.2824
632.249,-14.2357
632.447,-14.237
632.645,-14.2636
632.844,-14.2736
633.042,-14.3087
633.24,-14.4301
633.439,-14.3655
633.637,-14.4391
633.835,-14.4609
634.034,-14.4935
634.232,-14.54
634.43,-14.5416
634.628,-14.5675
634.827,-14.5989
635.025,-14.6759
635.223,-14.7234
635.421,-14.7164
635.62,-14.5893
635.818,-14.6199
636.016,-14.5612
636.214,-14.4994
636.412,-14.5532
636.61,-14.5377
636.808,-14.4383
637.006,-14.4462
637.205,-14.4501
637.403,-14.4458
637.601,-14.4884
637.799,-14.5628
637.997,-14.5125
638.195,-14.5151
638.393,-14.5636
638.591,-14.5155
638.789,-14.4687
638.987,-14.5534
639.184,-14.4872
639.382,-14.4283
639.58,-14.5296
639.778,-14.543
639.976,-14.5288
640.174,-14.5428
640.372,-14.6105
640.57,-14.6376
640.767,-14.6523
640.965,-14.7205
641.163,-14.6763
641.361,-14.6468
641.559,-14.5842
641.756,-14.6027
641.954,-14.6357
642.152,-14.7423
642.35,-14.7908
642.547,-14.701
642.745,-14.65
642.943,-14.7012
643.14,-14.6374
643.338,-14.681
643.536,-14.7026
643.733,-14.6834
643.931,-14.749
644.128,-14.809
644.326,-14.7321
644.524,-14.7525
644.721,-14.7242
644.919,-14.7152
645.116,-14.747
645.314,-14.6115
645.511,-14.5936
645.709,-14.5856
645.906,-14.619
646.104,-14.604
646.301,-14.5785
646.498,-14.6431
646.696,-14.6838
646.893,-14.672
647.091,-14.691
647.288,-14.6965
647.485,-14.636
647.683,-14.5834
647.88,-14.5614
648.077,-14.5402
648.275,-14.5379
648.472,-14.5846
648.669,-14.5883
648.867,-14.6219
649.064,-14.6368
649.261,-14.6439
649.458,-14.6659
649.655,-14.5683
649.853,-14.5453
650.05,-14.6105
650.247,-14.5701
650.444,-14.6115
650.641,-14.6095
650.838,-14.6156
651.036,-14.6213
651.233,-14.6048
651.43,-14.6353
651.627,-14.6266
651.824,-14.6172
652.021,-14.6249
652.218,-14.6686
652.415,-14.7382
652.612,-14.7843
652.809,-14.7332
653.006,-14.7054
653.203,-14.6309
653.4,-14.6704
653.597,-14.7136
653.794,-14.7199
653.991,-14.7344
654.187,-14.8634
654.384,-14.9098
654.581,-14.9451
654.778,-14.9161
654.975,-14.9333
655.172,-14.9453
655.369,-15.0083
655.565,-14.9816
655.762,-14.9628
655.959,-14.9294
656.156,-14.7827
656.352,-14.8126
656.549,-14.7529
656.746,-14.8316
656.943,-14.9161
657.139,-14.9308
657.336,-14.9235
657.533,-14.9638
657.729,-15.0231
657.926,-14.9251
658.122,-14.8664
658.319,-14.875
658.516,-14.9033
658.712,-14.9027
658.909,-14.792
659.105,-14.8033
659.302,-14.8905
659.498,-14.844
659.695,-14.8909
659.891,-14.8008
660.088,-14.8674
660.284,-14.9237
660.481,-14.917
660.677,-14.8599
660.874,-14.7845
661.07,-14.7943
661.266,-14.7238
661.463,-14.6948
661.659,-14.6616
661.856,-14.6011
662.052,-14.5284
662.248,-14.5785
662.444,-14.5832
662.641,-14.5363
662.837,-14.5695
663.033,-14.5493
663.23,-14.6131
663.426,-14.6235
663.622,-14.5746
663.818,-14.6364
664.014,-14.6054
664.211,-14.5308
664.407,-14.5367
664.603,-14.4799
664.799,-14.399
664.995,-14.4882
665.191,-14.4907
665.387,-14.4607
665.584,-14.4468
665.78,-14.5037
665.976,-14.4878
666.172,-14.4693
666.368,-14.5526
666.564,-14.6584
666.76,-14.6498
666.956,-14.6439
667.152,-14.5728
667.348,-14.5551
667.544,-14.5318
667.74,-14.5777
667.936,-14.6512
668.131,-14.5838
668.327,-14.5748
668.523,-14.5722
668.719,-14.5807
668.915,-14.6205
669.111,-14.7205
669.307,-14.6547
669.502,-14.6914
669.698,-14.5626
669.894,-14.6781
670.09,-14.6355
670.285,-14.5985
670.481,-14.6266
670.677,-14.5436
670.873,-14.5424
671.068,-14.6516
671.264,-14.6402
671.46,-14.6445
671.655,-14.6734
671.851,-14.6887
672.047,-14.6818
672.242,-14.6484
672.438,-14.6981
672.633,-14.6767
672.829,-14.5414
673.025,-14.5868
673.22,-14.5485
673.416,-14.447
673.611,-14.4065
673.807,-14.3786
674.002,-14.3026
674.198,-14.3146
674.393,-14.2706
674.589,-14.1964
674.784,-14.1854
674.979,-14.2408
675.175,-14.3996
675.37,-14.3686
675.566,-14.4175
675.761,-14.4142
675.956,-14.3788
676.152,-14.3992
676.347,-14.5387
676.542,-14.5375
676.738,-14.6033
676.933,-14.69
677.128,-14.7056
677.323,-14.6545
677.519,-14.6936
677.714,-14.7054
677.909,-14.6633
678.104,-14.7207
678.299,-14.7083
678.494,-14.629
678.69,-14.6851
678.885,-14.6573
679.08,-14.6692
679.275,-14.7032
679.47,-14.77
679.665,-14.791
679.86,-14.695
680.055,-14.6981
680.25,-14.6999
680.445,-14.7285
680.64,-14.7535
680.835,-14.7291
681.03,-14.8071
681.225,-14.8664
681.42,-14.9457
681.615,-14.907
681.81,-14.8803
682.005,-14.8623
682.2,-14.9064
682.395,-14.9716
682.59,-14.982
682.785,-15.0268
682.979,-14.9838
683.174,-15.0407
683.369,-15.0421
683.564,-15.0225
683.759,-15.0806
683.953,-15.0286
684.148,-14.9333
684.343,-14.9106
684.538,-14.9418
684.732,-14.9962
684.927,-15.0606
685.122,-15.071
685.316,-15.0916
685.511,-15.0749
685.706,-15.0845
685.9,-15.0704
686.095,-15.1089
686.29,-15.0466
686.484,-15.0398
686.679,-15.0429
686.873,-15.079
687.068,-15.0621
687.262,-15.1291
687.457,-15.1171
687.651,-15.0916
687.846,-15.0969
688.04,-15.0887
688.235,-15.046
688.429,-14.9638
688.624,-14.9944
688.818,-14.8379
689.013,-14.8365
689.207,-14.8261
689.401,-14.7279
689.596,-14.6692
689.79,-14.6955
689.984,-14.7619
690.179,-14.7745
690.373,-14.7819
690.567,-14.7753
690.762,-14.6765
690.956,-14.649
691.15,-14.6139
691.344,-14.5891
691.538,-14.6307
691.733,-14.6017
691.927,-14.5822
692.121,-14.6688
692.315,-14.7042
692.509,-14.7187
692.703,-14.6989
692.898,-14.6384
693.092,-14.597
693.286,-14.5956
693.48,-14.5316
693.674,-14.5216
693.868,-14.4591
694.062,-14.5514
694.256,-14.4297
694.45,-14.3588
694.644,-14.2694
694.838,-14.3058
695.032,-14.2612
695.226,-14.3213
695.42,-14.3641
695.614,-14.4087
695.808,-14.368
696.002,-14.2875
696.195,-14.2423
696.389,-14.2869
696.583,-14.3026
696.777,-14.3354
696.971,-14.3366
697.165,-14.3869
697.358,-14.444
697.552,-14.4269
697.746,-14.3994
697.94,-14.3904
698.133,-14.4273
698.327,-14.4138
698.521,-14.3947
698.715,-14.4878
698.908,-14.4695
699.102,-14.5555
699.296,-14.6005
699.489,-14.5508
699.683,-14.5803
699.876,-14.6757
700.07,-14.7136
700.264,-14.662
700.457,-14.6995
700.651,-14.6867
700.844,-14.7272
701.038,-14.6677
701.231,-14.7085
701.425,-14.7478
701.618,-14.6612
701.812,-14.6262
702.005,-14.5919
702.199,-14.6125
702.392,-14.5987
702.586,-14.573
702.779,-14.6182
702.972,-14.5208
703.166,-14.5634
703.359,-14.5542
703.552,-14.5163
703.746,-14.541
703.939,-14.5783
704.132,-14.5053
704.326,-14.5506
704.519,-14.4984
704.712,-14.5078
704.905,-14.4676
705.099,-14.4517
705.292,-14.5436
705.485,-14.4739
705.678,-14.4081
705.871,-14.4473
706.064,-14.488
706.258,-14.5589
706.451,-14.5687
706.644,-14.5954
706.837,-14.6272
707.03,-14.6667
707.223,-14.7128
707.416,-14.7111
707.609,-14.7173
707.802,-14.7694
707.995,-14.7641
708.188,-14.8061
708.381,-14.7986
708.574,-14.7855
708.767,-14.8711
708.96,-14.8442
709.153,-14.909
709.346,-14.9003
709.539,-14.8387
709.732,-14.8909
709.924,-14.841
710.117,-14.8326
710.31,-14.8155
710.503,-14.8432
710.696,-14.8776
710.889,-14.9212
711.081,-14.9457
711.274,-14.8805
711.467,-14.8247
711.66,-14.864
711.852,-14.9422
712.045,-14.8996
712.238,-14.8532
712.43,-14.9508
712.623,-14.9852
712.816,-14.9675
713.008,-15.0239
713.201,-14.9618
713.394,-14.9502
713.586,-14.9453
713.779,-14.9734
713.971,-14.9151
714.164,-14.8723
714.356,-14.8287
714.549,-14.8314
714.741,-14.8734
714.934,-14.9031
715.126,-14.8746
715.319,-14.8956
715.511,-14.9017
715.704,-14.9418
715.896,-14.831
716.088,-14.8414
716.281,-14.8795
716.473,-14.8599
716.666,-14.8646
716.858,-14.9241
717.05,-14.9072
717.243,-15.0386
717.435,-15.0814
717.627,-15.0924
717.819,-15.0908
718.012,-15.0433
718.204,-15.0645
718.396,-14.9981
718.588,-14.9781
718.781,-14.9973
718.973,-15.0003
719.165,-15.0553
719.357,-15.0443
719.549,-14.9891
719.741,-15.0156
719.934,-15.0376
720.126,-14.9887
720.318,-14.8952
720.51,-14.9082
720.702,-14.918
720.894,-14.8982
721.086,-14.9062
721.278,-14.8183
721.47,-14.8271
721.662,-14.6881
721.854,-14.7016
722.046,-14.6883
722.238,-14.6472
722.43,-14.639
722.622,-14.6001
722.814,-14.5811
723.005,-14.6649
723.197,-14.637
723.389,-14.5675
723.581,-14.5277
723.773,-14.508
723.965,-14.446
724.156,-14.4631
724.348,-14.5129
724.54,-14.4817
724.732,-14.4391
724.923,-14.4318
725.115,-14.4739
725.307,-14.4485
725.499,-14.4401
725.69,-14.4338
725.882,-14.4658
726.074,-14.3831
726.265,-14.393
726.457,-14.3584
726.648,-14.3083
726.84,-14.3091
727.032,-14.382
727.223,-14.4352
727.415,-14.4297
727.606,-14.5734
727.798,-14.6062
727.989,-14.6296
728.181,-14.6838
728.372,-14.7472
728.564,-14.738
728.755,-14.7048
728.947,-14.7849
729.138,-14.813
729.329,-14.8515
729.521,-14.8868
729.712,-14.9369
729.904,-14.9441
730.095,-14.95
730.286,-14.9221
730.478,-14.8756
730.669,-14.9139
730.86,-14.7988
731.051,-14.7338
731.243,-14.7285
731.434,-14.759
731.625,-14.7892
731.816,-14.7955
732.008,-14.7931
732.199,-14.7823
732.39,-14.7876
732.581,-14.8047
732.772,-14.7433
732.963,-14.7935
733.154,-14.8287
733.346,-14.8302
733.537,-14.8022
733.728,-14.8901
733.919,-14.8471
734.11,-14.8505
734.301,-14.8652
734.492,-14.9172
734.683,-15.0062
734.874,-14.9905
735.065,-14.9159
735.256,-14.899
735.447,-14.9164
735.638,-14.9363
735.829,-14.9789
736.019,-14.9257
736.21,-14.9488
736.401,-14.9441
736.592,-15.0455
736.783,-15.0382
736.974,-15.1087
737.164,-15.0961
737.355,-14.9911
737.546,-14.9826
737.737,-14.9775
737.928,-14.9618
738.118,-14.9314
738.309,-14.9661
738.5,-14.974
738.69,-14.9357
738.881,-14.9571
739.072,-14.973
739.262,-14.9954
739.453,-14.9492
739.644,-14.9706
739.834,-15.0319
740.025,-15.0099
740.215,-15.0729
740.406,-15.0301
740.596,-15.028
740.787,-15.0356
740.978,-15.0056
741.168,-14.9471
741.358,-14.9991
741.549,-15.0539
741.739,-15.0142
741.93,-14.9944
742.12,-14.9377
742.311,-14.9648
742.501,-14.9712
742.691,-15.0845
742.882,-15.0453
743.072,-15.0429
743.263,-15.0674
743.453,-15.0802
743.643,-15.079
743.833,-15.0578
744.024,-14.9979
744.214,-14.9343
744.404,-14.9382
744.594,-14.9377
744.785,-14.9814
744.975,-14.9186
745.165,-14.8658
745.355,-14.8858
745.545,-14.7988
745.736,-14.9023
745.926,-14.8815
746.116,-14.7611
746.306,-14.7069
746.496,-14.6461
746.686,-14.5972
746.876,-14.6172
747.066,-14.6111
747.256,-14.6233
747.446,-14.6217
747.636,-14.5055
747.826,-14.4265
748.016,-14.4754
748.206,-14.4291
748.396,-14.4564
748.586,-14.4259
748.776,-14.4917
748.966,-14.4819
749.156,-14.4554
749.346,-14.4271
749.535,-14.4041
749.725,-14.5241
749.915,-14.5732
750.105,-14.5634
750.295,-14.5709
750.484,-14.607
750.674,-14.7338
750.864,-14.7022
751.054,-14.6622
751.243,-14.6533
751.433,-14.5734
751.623,-14.6266
751.812,-14.6869
752.002,-14.6518
752.192,-14.6441
752.381,-14.669
752.571,-14.6423
752.761,-14.7038
752.95,-14.5952
753.14,-14.5946
753.329,-14.5292
753.519,-14.561
753.708,-14.4464
753.898,-14.4466
754.087,-14.4242
754.277,-14.4721
754.466,-14.4823
754.656,-14.4228
754.845,-14.3588
755.035,-14.3179
755.224,-14.2524
755.413,-14.2237
755.603,-14.0982
755.792,-14.0996
755.982,-14.0169
756.171,-14.0175
756.36,-13.9894
756.549,-13.9651
756.739,-14.0057
756.928,-14.0432
757.117,-14.0326
757.307,-14.0016
757.496,-13.939
757.685,-13.9172
757.874,-13.9144
758.063,-13.9425
758.253,-13.914
758.442,-13.9174
758.631,-13.9912
758.82,-13.9374
759.009,-14.0224
759.198,-14.0493
759.387,-13.9849
759.576,-13.9062
759.765,-13.9492
759.954,-14.0552
760.143,-13.9792
760.332,-13.9276
760.521,-13.8944
760.71,-13.9333
760.899,-13.9869
761.088,-14.0619
761.277,-14.1173
761.466,-14.1265
761.655,-14.2129
761.844,-14.2323
762.033,-14.2826
762.222,-14.3285
762.411,-14.3009
762.599,-14.2871
762.788,-14.3437
762.977,-14.4045
763.166,-14.4232
763.355,-14.4503
763.543,-14.4833
763.732,-14.4905
763.921,-14.4719
764.109,-14.4852
764.298,-14.4941
764.487,-14.5548
764.675,-14.5899
764.864,-14.6439
765.053,-14.5803
765.241,-14.5043
765.43,-14.5271
765.619,-14.5243
765.807,-14.5092
765.996,-14.5308
766.184,-14.5104
766.373,-14.5135
766.561,-14.4762
766.75,-14.4986
766.938,-14.4597
767.127,-14.39
767.315,-14.3148
767.504,-14.2924
767.692,-14.2905
767.881,-14.2757
768.069,-14.3388
768.257,-14.3427
768.446,-14.4206
768.634,-14.5
768.822,-14.5659
769.011,-14.5974
769.199,-14.6726
769.387,-14.6038
769.576,-14.4583
769.764,-14.4022
769.952,-14.4634
770.14,-14.3918
770.328,-14.3615
770.517,-14.3307
770.705,-14.3044
770.893,-14.2547
771.081,-14.3295
771.269,-14.3333
771.457,-14.3749
771.646,-14.4034
771.834,-14.3784
772.022,-14.4212
772.21,-14.4809
772.398,-14.3943
772.586,-14.3309
772.774,-14.291
772.962,-14.3174
773.15,-14.3448
773.338,-14.3592
773.526,-14.3091
773.714,-14.281
773.902,-14.2724
774.09,-14.2846
774.278,-14.2696
774.465,-14.2797
774.653,-14.2131
774.841,-14.2011
775.029,-14.1662
775.217,-14.1993
775.405,-14.2182
775.592,-14.2836
775.78,-14.2084
775.968,-14.2584
776.156,-14.3134
776.343,-14.2887
776.531,-14.197
776.719,-14.1952
776.907,-14.1379
777.094,-14.1287
777.282,-14.0823
777.47,-14.1098
777.657,-14.1691
777.845,-14.1047
778.032,-14.0868
778.22,-14.1569
778.408,-14.2732
778.595,-14.2936
778.783,-14.2537
778.97,-14.2624
779.158,-14.3201
779.345,-14.2846
779.533,-14.2816
779.72,-14.2742
779.908,-14.2901
780.095,-14.3625
780.282,-14.41
780.47,-14.4079
780.657,-14.3541
780.845,-14.3678
781.032,-14.4151
781.219,-14.4358
781.407,-14.3592
781.594,-14.3837
781.781,-14.3492
781.969,-14.3725
782.156,-14.3598
782.343,-14.281
782.53,-14.2795
782.718,-14.2029
782.905,-14.2757
783.092,-14.2989
783.279,-14.2494
783.466,-14.3056
783.653,-14.1993
783.841,-14.1393
784.028,-14.2533
784.215,-14.2533
784.402,-14.2435
784.589,-14.2846
784.776,-14.3095
784.963,-14.2586
785.15,-14.2751
785.337,-14.325
785.524,-14.3861
785.711,-14.475
785.898,-14.4689
786.085,-14.5579
786.272,-14.5422
786.459,-14.6286
786.646,-14.6135
786.833,-14.5569
787.02,-14.5387
787.206,-14.5801
787.393,-14.5787
787.58,-14.5461
787.767,-14.4937
787.954,-14.4725
788.14,-14.479
788.327,-14.4801
788.514,-14.3886
788.701,-14.4098
788.887,-14.4167
789.074,-14.3871
789.261,-14.4636
789.448,-14.4079
789.634,-14.4087
789.821,-14.4377
790.008,-14.388
790.194,-14.3928
790.381,-14.4888
790.567,-14.544
790.754,-14.6276
790.94,-14.6453
791.127,-14.6977
791.314,-14.6724
791.5,-14.7022
791.687,-14.705
791.873,-14.6474
792.059,-14.6115
792.246,-14.627
792.432,-14.6798
792.619,-14.7861
792.805,-14.7749
792.992,-14.813
793.178,-14.8744
793.364,-14.9204
793.551,-14.9392
793.737,-14.9516
793.923,-15.0339
794.11,-15.0557
794.296,-15.0557
794.482,-15.0068
794.668,-15.0017
794.855,-15.026
795.041,-15.091
795.227,-15.0268
795.413,-15.0115
795.599,-15.0476
795.786,-15.0103
795.972,-15.0036
796.158,-14.9587
796.344,-14.9339
796.53,-14.9471
796.716,-14.81
796.902,-14.8595
797.088,-14.8758
797.274,-14.8868
797.46,-14.9322
797.646,-14.8966
797.832,-14.9616
798.018,-15.0001
798.204,-15.0765
798.39,-15.0319
798.576,-14.964
798.762,-14.9659
798.948,-14.9241
799.134,-14.8626
799.32,-14.7698
799.506,-14.7902
799.692,-14.7796
799.877,-14.7849
800.063,-14.7986
800.249,-14.7916
800.435,-14.7213
800.621,-14.6602
800.806,-14.6296
800.992,-14.5809
801.178,-14.5151
801.363,-14.507
801.549,-14.52
801.735,-14.5112
801.92,-14.5764
802.106,-14.5797
802.292,-14.5538
802.477,-14.5498
802.663,-14.639
802.849,-14.6722
803.034,-14.6637
803.22,-14.6355
803.405,-14.6417
803.591,-14.6806
803.776,-14.671
803.962,-14.6616
804.147,-14.6891
804.333,-14.6172
804.518,-14.6618
804.703,-14.5659
804.889,-14.5734
805.074,-14.5805
805.26,-14.63
805.445,-14.6655
805.63,-14.6732
805.816,-14.7959
806.001,-14.725
806.186,-14.67
806.372,-14.5705
806.557,-14.6714
806.742,-14.7191
806.927,-14.7757
807.113,-14.8599
807.298,-14.909
807.483,-14.8925
807.668,-14.9009
807.853,-14.9496
808.039,-15.0349
808.224,-15.09
808.409,-15.1623
808.594,-15.1523
808.779,-15.19
808.964,-15.1085
809.149,-15.1354
809.334,-15.0904
809.519,-15.0618
809.704,-15.0182
809.889,-15.0486
810.074,-15.1152
810.259,-15.1075
810.444,-15.0906
810.629,-15.1189
810.814,-15.1521
810.999,-15.2012
811.184,-15.1831
811.369,-15.1442
811.554,-15.1299
811.738,-15.1692
811.923,-15.1874
812.108,-15.1788
812.293,-15.1309
812.478,-15.1108
812.662,-15.1185
812.847,-15.126
813.032,-15.0688
813.217,-15.1436
813.401,-15.1061
813.586,-15.1256
813.771,-15.1556
813.955,-15.1917
814.14,-15.2114
814.325,-15.3357
814.509,-15.2834
814.694,-15.2699
814.878,-15.3052
815.063,-15.2876
815.248,-15.2601
815.432,-15.2542
815.617,-15.2736
815.801,-15.2381
815.986,-15.2607
816.17,-15.3011
816.355,-15.2852
816.539,-15.2349
816.723,-15.1266
816.908,-15.1163
817.092,-15.1605
817.277,-15.1405
817.461,-15.2208
817.645,-15.1405
817.83,-15.1684
818.014,-15.2073
818.198,-15.1297
818.383,-15.0777
818.567,-14.9773
818.751,-15.0953
818.935,-15.1446
819.12,-15.1169
819.304,-15.1456
819.488,-15.1764
819.672,-15.2342
819.856,-15.1933
820.041,-15.2112
820.225,-15.1986
820.409,-15.2344
820.593,-15.2679
820.777,-15.2942
820.961,-15.3467
821.145,-15.4295
821.329,-15.4437
821.513,-15.4861
821.697,-15.4902
821.881,-15.4354
822.065,-15.3638
822.249,-15.424
822.433,-15.4223
822.617,-15.3816
822.801,-15.3264
822.985,-15.3168
823.169,-15.3145
823.353,-15.2799
823.536,-15.3043
823.72,-15.2082
823.904,-15.2332
824.088,-15.2919
824.272,-15.329
824.456,-15.2361
824.639,-15.2581
824.823,-15.191
825.007,-15.2406
825.19,-15.3445
825.374,-15.3178
825.558,-15.3634
825.742,-15.4195
825.925,-15.4244
826.109,-15.4189
826.292,-15.4802
826.476,-15.4152
826.66,-15.4409
826.843,-15.3816
827.027,-15.3804
827.21,-15.3557
827.394,-15.3912
827.577,-15.3667
827.761,-15.3208
827.944,-15.3227
828.128,-15.2622
828.311,-15.3094
828.495,-15.2966
828.678,-15.3406
828.862,-15.3669
829.045,-15.3498
829.228,-15.4977
829.412,-15.4433
829.595,-15.4274
829.778,-15.3227
829.962,-15.3351
830.145,-15.3365
830.328,-15.308
830.512,-15.2697
830.695,-15.2367
830.878,-15.3031
831.061,-15.201
831.244,-15.1641
831.428,-15.2465
831.611,-15.199
831.794,-15.1849
831.977,-15.1421
832.16,-15.1751
832.343,-15.2463
832.526,-15.2226
832.709,-15.1904
832.893,-15.1688
833.076,-15.1336
833.259,-15.2402
833.442,-15.1849
833.625,-15.1906
833.808,-15.2516
833.991,-15.2326
834.174,-15.285
834.356,-15.327
834.539,-15.2318
834.722,-15.2457
834.905,-15.2461
835.088,-15.2067
835.271,-15.1393
835.454,-15.0649
835.637,-15.06
835.819,-15.1046
836.002,-15.0863
836.185,-15.0987
836.368,-15.176
836.551,-15.1326
836.733,-15.0621
836.916,-15.0123
837.099,-15.026
837.281,-15.0421
837.464,-15.0782
837.647,-15.0716
837.829,-15.0651
838.012,-15.0639
838.195,-15.0961
838.377,-15.1476
838.56,-15.1633
838.742,-15.1709
838.925,-15.178
839.107,-15.1493
839.29,-15.1415
839.472,-15.1568
839.655,-15.0839
839.837,-15.0712
840.02,-15.0773
840.202,-15.0808
840.385,-14.9956
840.567,-14.9365
840.749,-14.9377
840.932,-14.9249
841.114,-14.9231
841.297,-14.9302
841.479,-14.9628
841.661,-15.0451
841.843,-15.0549
842.026,-15.0425
842.208,-14.9661
842.39,-15.0127
842.572,-14.9722
842.755,-14.8515
842.937,-14.9076
843.119,-14.8432
843.301,-14.7827
843.483,-14.7435
843.666,-14.6883
843.848,-14.6512
844.03,-14.6763
844.212,-14.7128
844.394,-14.6991
844.576,-14.6388
844.758,-14.4911
844.94,-14.4181
845.122,-14.3472
845.304,-14.2995
845.486,-14.2622
845.668,-14.1593
845.85,-14.2408
846.032,-14.1779
846.214,-14.1583
846.396,-14.1622
846.578,-14.1589
846.759,-14.1636
846.941,-14.1455
847.123,-14.1043
847.305,-14.1383
847.487,-14.1825
847.669,-14.1593
847.85,-14.1306
848.032,-14.0902
848.214,-14.1247
848.396,-14.1082
848.577,-14.0717
848.759,-14.0809
848.941,-14.0792
849.122,-14.1151
849.304,-14.0858
849.486,-14.0499
849.667,-14.0572
849.849,-14.0949
850.03,-14.0238
850.212,-14.0146
850.394,-13.9235
850.575,-13.9718
850.757,-13.9623
850.938,-14.0313
851.12,-13.9875
851.301,-14.0169
851.483,-14.0218
851.664,-13.9401
851.845,-13.9284
852.027,-14.0046
852.208,-14.0491
852.39,-14.0091
852.571,-13.9932
852.752,-13.946
852.934,-13.9215
853.115,-13.9594
853.296,-13.9873
853.478,-14.0642
853.659,-14.045
853.84,-14.0619
854.021,-14.1471
854.203,-14.0265
854.384,-14.0876
854.565,-14.0752
854.746,-13.982
854.927,-13.9743
855.108,-14.035
855.29,-14.0898
855.471,-14.1076
855.652,-14.0542
855.833,-14.0538
856.014,-14.0546
856.195,-14.0923
856.376,-14.1343
856.557,-14.1287
856.738,-14.134
856.919,-14.0888
857.1,-14.0053
857.281,-13.9896
857.462,-13.9564
857.643,-13.8543
857.824,-13.8838
858.005,-13.8147
858.185,-13.764
858.366,-13.7528
858.547,-13.6953
858.728,-13.7338
858.909,-13.7047
859.09,-13.6313
859.27,-13.6741
859.451,-13.701
859.632,-13.7261
859.813,-13.6772
859.993,-13.6541
860.174,-13.6753
860.355,-13.7738
860.535,-13.6863
860.716,-13.669
860.897,-13.6868
861.077,-13.7622
861.258,-13.7377
861.438,-13.7418
861.619,-13.7075
861.8,-13.5979
861.98,-13.5188
862.161,-13.4581
862.341,-13.4045
862.522,-13.4652
862.702,-13.5005
862.883,-13.4555
863.063,-13.4707
863.243,-13.4406
863.424,-13.4233
863.604,-13.4288
863.785,-13.4487
863.965,-13.4347
864.145,-13.3693
864.326,-13.3721
864.506,-13.3823
864.686,-13.4216
864.867,-13.3546
865.047,-13.3772
865.227,-13.3108
865.407,-13.1887
865.588,-13.2596
865.768,-13.1897
865.948,-13.1954
866.128,-13.1877
866.308,-13.2871
866.488,-13.366
866.669,-13.3705
866.849,-13.367
867.029,-13.378
867.209,-13.3381
867.389,-13.3092
867.569,-13.3132
867.749,-13.3473
867.929,-13.2996
868.109,-13.4223
868.289,-13.4182
868.469,-13.4946
868.649,-13.4086
868.829,-13.3554
869.009,-13.408
869.189,-13.4255
869.369,-13.4663
869.548,-13.4298
869.728,-13.3786
869.908,-13.3416
870.088,-13.3917
870.268,-13.3876
870.448,-13.3232
870.627,-13.3744
870.807,-13.3856
870.987,-13.4357
871.167,-13.4655
871.346,-13.4571
871.526,-13.4846
871.706,-13.4813
871.885,-13.5574
872.065,-13.5311
872.245,-13.4604
872.424,-13.519
872.604,-13.5641
872.783,-13.5572
872.963,-13.5718
873.142,-13.5757
873.322,-13.5906
873.501,-13.5547
873.681,-13.476
873.86,-13.5125
874.04,-13.5241
874.219,-13.5248
874.399,-13.4347
874.578,-13.3416
874.758,-13.325
874.937,-13.2996
875.116,-13.3028
875.296,-13.2959
875.475,-13.1926
875.654,-13.2052
875.834,-13.1539
876.013,-13.1844
876.192,-13.1867
876.372,-13.1759
876.551,-13.2338
876.73,-13.2855
876.909,-13.2796
877.088,-13.2331
877.268,-13.2639
877.447,-13.2539
877.626,-13.2774
877.805,-13.1683
877.984,-13.1213
878.163,-13.1582
878.342,-13.1416
878.521,-13.1565
878.7,-13.1088
878.879,-13.1266
879.059,-13.137
879.238,-13.1033
879.417,-13.2721
879.595,-13.2827
879.774,-13.2602
879.953,-13.2686
880.132,-13.2686
880.311,-13.1918
880.49,-13.1928
880.669,-13.1702
880.848,-13.2472
881.027,-13.3526
881.205,-13.343
881.384,-13.4149
881.563,-13.432
881.742,-13.4459
881.921,-13.5276
882.099,-13.5137
882.278,-13.4797
882.457,-13.5698
882.635,-13.519
882.814,-13.5156
882.993,-13.5453
883.171,-13.4714
883.35,-13.5315
883.529,-13.4718
883.707,-13.4292
883.886,-13.4457
884.064,-13.3564
884.243,-13.4375
884.422,-13.3982
884.6,-13.4551
884.779,-13.4549
884.957,-13.4624
885.136,-13.5089
885.314,-13.5227
885.492,-13.6405
885.671,-13.6507
885.849,-13.6309
886.028,-13.6156
886.206,-13.6071
886.384,-13.6091
886.563,-13.6187
886.741,-13.4948
886.919,-13.5398
887.098,-13.5087
887.276,-13.5331
887.454,-13.4897
887.632,-13.4779
887.811,-13.4887
887.989,-13.5111
888.167,-13.573
888.345,-13.4946
888.523,-13.4359
888.702,-13.4465
888.88,-13.464
889.058,-13.4832
889.236,-13.4793
889.414,-13.493
889.592,-13.4494
889.77,-13.4186
889.948,-13.43
890.126,-13.2898
890.304,-13.3193
890.482,-13.2804
890.66,-13.238
890.838,-13.2749
891.016,-13.3306
891.194,-13.2315
891.372,-13.226
891.55,-13.1349
891.728,-13.2083
891.905,-13.2729
892.083,-13.2696
892.261,-13.26
892.439,-13.1944
892.617,-13.2421
892.794,-13.2342
892.972,-13.2248
893.15,-13.2627
893.328,-13.2727
893.505,-13.215
893.683,-13.2539
893.861,-13.2415
894.038,-13.2664
894.216,-13.2317
894.394,-13.2331
894.571,-13.2996
894.749,-13.3183
894.926,-13.3548
895.104,-13.4581
895.281,-13.3848
895.459,-13.3909
895.637,-13.3711
895.814,-13.3896
895.992,-13.3945
896.169,-13.3414
896.346,-13.3542
896.524,-13.4204
896.701,-13.429
896.879,-13.354
897.056,-13.3106
897.233,-13.3071
897.411,-13.3236
897.588,-13.3089
897.765,-13.3255
897.943,-13.441
898.12,-13.4483
898.297,-13.4673
898.475,-13.3892
898.652,-13.4453
898.829,-13.5315
899.006,-13.5667
899.183,-13.6425
899.361,-13.6499
899.538,-13.6843
899.715,-13.6908
899.892,-13.7057
900.069,-13.7469
900.246,-13.735
900.423,-13.7071
900.6,-13.6898
900.777,-13.7324
900.954,-13.7316
901.131,-13.7878
901.308,-13.8127
901.485,-13.7467
901.662,-13.7004
901.839,-13.7473
902.016,-13.7257
902.193,-13.6851
902.37,-13.5928
902.547,-13.5896
902.724,-13.5535
902.9,-13.5716
903.077,-13.6001
903.254,-13.5902
903.431,-13.6366
903.608,-13.636
903.784,-13.6156
903.961,-13.538
904.138,-13.5578
904.315,-13.4677
904.491,-13.4231
904.668,-13.4575
904.845,-13.4188
905.021,-13.4842
905.198,-13.493
905.375,-13.5708
905.551,-13.5961
905.728,-13.679
905.904,-13.5818
906.081,-13.5178
906.257,-13.59
906.434,-13.5836
906.61,-13.5441
906.787,-13.4347
906.963,-13.4447
907.14,-13.5021
907.316,-13.4981
907.493,-13.5296
907.669,-13.5478
907.845,-13.6054
908.022,-13.605
908.198,-13.6052
908.374,-13.5916
908.551,-13.6148
908.727,-13.6148
908.903,-13.648
909.08,-13.6209
909.256,-13.6941
909.432,-13.7882
909.608,-13.7909
909.785,-13.8414
909.961,-13.8265
910.137,-13.9977
910.313,-14.1139
910.489,-14.0711
910.665,-14.066
910.841,-14.0831
911.018,-14.0574
911.194,-14.1006
911.37,-14.1514
911.546,-14.2052
911.722,-14.292
911.898,-14.3107
912.074,-14.3358
912.25,-14.2502
912.426,-14.272
912.602,-14.2899
912.777,-14.325
912.953,-14.3032
913.129,-14.2759
913.305,-14.2449
913.481,-14.357
913.657,-14.3735
913.833,-14.4036
914.008,-14.4572
914.184,-14.4367
914.36,-14.4352
914.536,-14.436
914.712,-14.4067
914.887,-14.412
915.063,-14.356
915.239,-14.3914
915.414,-14.432
915.59,-14.3625
915.766,-14.325
915.941,-14.4053
916.117,-14.3066
916.292,-14.3305
916.468,-14.3264
916.644,-14.3598
916.819,-14.3364
916.995,-14.3327
917.17,-14.3753
917.346,-14.4212
917.521,-14.4026
917.697,-14.3494
917.872,-14.433
918.048,-14.3751
918.223,-14.4252
918.398,-14.4485
918.574,-14.4055
918.749,-14.4108
918.924,-14.3979
919.1,-14.4468
919.275,-14.4507
919.45,-14.4071
919.626,-14.4202
919.801,-14.3631
919.976,-14.3977
920.151,-14.3668
920.327,-14.3588
920.502,-14.3132
920.677,-14.3179
920.852,-14.3688
921.027,-14.3405
921.202,-14.3223
921.378,-14.3464
921.553,-14.3417
921.728,-14.4057
921.903,-14.4126
922.078,-14.4424
922.253,-14.4937
922.428,-14.4744
922.603,-14.464
922.778,-14.3992
922.953,-14.4395
923.128,-14.4758
923.303,-14.4687
923.478,-14.5277
923.652,-14.465
923.827,-14.5098
924.002,-14.5793
924.177,-14.595
924.352,-14.6186
924.527,-14.6056
924.702,-14.6111
924.876,-14.6602
925.051,-14.7142
925.226,-14.7287
925.401,-14.7144
925.575,-14.8028
925.75,-14.8169
925.925,-14.8369
926.099,-14.9414
926.274,-14.9818
926.449,-15.0152
926.623,-15.07
926.798,-15.1081
926.972,-15.219
927.147,-15.1423
927.322,-15.0445
927.496,-14.9836
927.671,-14.9909
927.845,-15.0125
928.02,-15.0421
928.194,-15.0729
928.368,-15.1493
928.543,-15.1664
928.717,-15.1686
928.892,-15.2636
929.066,-15.3459
929.24,-15.2772
929.415,-15.3125
929.589,-15.3871
929.763,-15.3679
929.938,-15.331
930.112,-15.3347
930.286,-15.2825
930.461,-15.2334
930.635,-15.1792
930.809,-15.1584
930.983,-15.1939
931.157,-15.1788
931.332,-15.1564
931.506,-15.1226
931.68,-15.0965
931.854,-15.0706
932.028,-15.105
932.202,-15.1927
932.376,-15.189
932.55,-15.1071
932.724,-15.1982
932.898,-15.222
933.072,-15.2399
933.246,-15.2302
933.42,-15.2558
933.594,-15.2972
933.768,-15.2958
933.942,-15.242
934.116,-15.2395
934.29,-15.2475
934.464,-15.1802
934.638,-15.2291
934.811,-15.1391
934.985,-15.1576
935.159,-15.1077
935.333,-15.0763
935.507,-15.0231
935.68,-15.0643
935.854,-15.0559
936.028,-15.0437
936.201,-15.0698
936.375,-15.1128
936.549,-15.2277
936.722,-15.2408
936.896,-15.2332
937.07,-15.1727
937.243,-15.2112
937.417,-15.2139
937.59,-15.1929
937.764,-15.2479
937.938,-15.2169
938.111,-15.2291
938.285,-15.2159
938.458,-15.2088
938.631,-15.2214
938.805,-15.2556
938.978,-15.2626
939.152,-15.2243
939.325,-15.1497
939.499,-15.1841
939.672,-15.1941
939.845,-15.2027
940.019,-15.2277
940.192,-15.0957
940.365,-15.0881
940.538,-15.036
940.712,-15.0074
940.885,-15.0741
941.058,-15.1615
941.231,-15.2177
941.405,-15.2143
941.578,-15.1705
941.751,-15.1961
941.924,-15.3174
942.097,-15.2705
942.27,-15.1654
942.443,-15.1442
942.617,-15.1599
942.79,-15.1089
942.963,-15.1057
943.136,-15.0739
943.309,-15.0415
943.482,-15.0714
943.655,-15.0272
943.828,-15.0217
944.001,-15.0519
944.173,-15.1915
944.346,-15.1195
944.519,-15.0959
944.692,-15.0286
944.865,-14.9944
945.038,-14.9973
945.211,-14.9322
945.383,-14.8795
945.556,-14.954
945.729,-14.9628
945.902,-14.8994
946.075,-14.8911
946.247,-14.9196
946.42,-14.9108
946.593,-14.9151
946.765,-14.8874
946.938,-14.8917
947.111,-14.8844
947.283,-14.9318
947.456,-14.951
947.628,-14.9355
947.801,-14.9524
947.974,-14.9435
948.146,-15.004
948.319,-15.0394
948.491,-14.9856
948.664,-15.0788
948.836,-15.0209
949.009,-14.9891
949.181,-15.0441
949.353,-15.0568
949.526,-14.9911
949.698,-15.017
949.871,-14.9917
950.043,-14.9824
950.215,-14.972
950.388,-14.9351
950.56,-14.9432
950.732,-14.9683
950.904,-14.9593
951.077,-15.0865
951.249,-14.9973
951.421,-14.986
951.593,-14.9765
951.766,-14.9822
951.938,-14.899
952.11,-14.8766
952.282,-14.7886
952.454,-14.7735
952.626,-14.8892
952.798,-14.8943
952.97,-14.9272
953.142,-14.9496
953.314,-14.9359
953.487,-14.9809
953.659,-14.9999
953.83,-14.9651
954.002,-14.8754
954.174,-14.8713
954.346,-14.8895
954.518,-15.0319
954.69,-15.0981
954.862,-15.0154
955.034,-15.0837
955.206,-15.0445
955.378,-15.0745
955.549,-14.9746
955.721,-14.919
955.893,-14.8646
956.065,-14.8143
956.236,-14.7745
956.408,-14.8295
956.58,-14.8061
956.752,-14.8544
956.923,-14.8336
957.095,-14.855
957.267,-14.8558
957.438,-14.8465
957.61,-14.8216
957.781,-14.8145
957.953,-14.8927
958.125,-14.9502
958.296,-14.8422
958.468,-14.8271
958.639,-14.8536
958.811,-14.7711
958.982,-14.6981
959.154,-14.6895
959.325,-14.7405
959.496,-14.7016
959.668,-14.6629
959.839,-14.6659
960.011,-14.6739
960.182,-14.6724
960.353,-14.6641
960.525,-14.6249
960.696,-14.5691
960.867,-14.4874
961.038,-14.5025
961.21,-14.4075
961.381,-14.4354
961.552,-14.4438
961.723,-14.3812
961.895,-14.4731
962.066,-14.4872
962.237,-14.5508
962.408,-14.5116
962.579,-14.5367
962.75,-14.5096
962.921,-14.5174
963.092,-14.5347
963.263,-14.5387
963.434,-14.593
963.605,-14.4927
963.776,-14.4526
963.947,-14.4705
964.118,-14.4886
964.289,-14.4735
964.46,-14.4711
964.631,-14.5019
964.802,-14.4519
964.973,-14.5114
965.144,-14.4986
965.315,-14.6739
965.485,-14.6865
965.656,-14.6916
965.827,-14.7796
965.998,-14.7925
966.169,-14.78
966.339,-14.7466
966.51,-14.7389
966.681,-14.6969
966.851,-14.6865
967.022,-14.726
967.193,-14.8308
967.363,-14.7566
967.534,-14.7723
967.705,-14.7855
967.875,-14.7085
968.046,-14.7389
968.216,-14.6953
968.387,-14.6565
968.557,-14.6948
968.728,-14.6421
968.898,-14.6372
969.069,-14.6626
969.239,-14.639
969.41,-14.7232
969.58,-14.7364
969.751,-14.7535
969.921,-14.7654
970.091,-14.7892
970.262,-14.6873
970.432,-14.7142
970.602,-14.7093
970.773,-14.6443
970.943,-14.5681
971.113,-14.533
971.283,-14.5718
971.454,-14.6103
971.624,-14.6645
971.794,-14.6107
971.964,-14.6239
972.134,-14.6561
972.305,-14.5418
972.475,-14.5826
972.645,-14.5561
972.815,-14.5567
972.985,-14.5436
973.155,-14.4978
973.325,-14.4214
973.495,-14.4479
973.665,-14.4128
973.835,-14.4858
974.005,-14.5322
974.175,-14.5622
974.345,-14.6176
974.515,-14.6086
974.685,-14.6514
974.855,-14.6887
975.024,-14.7853
975.194,-14.7918
975.364,-14.7217
975.534,-14.6908
975.704,-14.6938
975.874,-14.6865
976.043,-14.6918
976.213,-14.6323
976.383,-14.5724
976.553,-14.5722
976.722,-14.5978
976.892,-14.6313
977.062,-14.5864
977.231,-14.6262
977.401,-14.6188
977.57,-14.6099
977.74,-14.5669
977.91,-14.5449
978.079,-14.5659
978.249,-14.6027
978.418,-14.5913
978.588,-14.4664
978.757,-14.4888
978.927,-14.3977
979.096,-14.4397
979.266,-14.5017
979.435,-14.5257
979.604,-14.477
979.774,-14.5045
979.943,-14.4554
980.113,-14.4528
980.282,-14.4845
980.451,-14.4285
980.621,-14.454
980.79,-14.4354
980.959,-14.4273
981.128,-14.403
981.298,-14.3641
981.467,-14.4132
981.636,-14.3631
981.805,-14.2416
981.974,-14.2345
982.143,-14.2533
982.313,-14.2897
982.482,-14.2492
982.651,-14.2749
982.82,-14.3293
982.989,-14.302
983.158,-14.2901
983.327,-14.2651
983.496,-14.2486
983.665,-14.2202
983.834,-14.2934
984.003,-14.2897
984.172,-14.3095
984.341,-14.3013
984.51,-14.3376
984.679,-14.2838
984.847,-14.25
985.016,-14.2467
985.185,-14.2037
985.354,-14.1611
985.523,-14.2054
985.692,-14.2186
985.86,-14.274
986.029,-14.3741
986.198,-14.4627
986.366,-14.4252
986.535,-14.4797
986.704,-14.5616
986.873,-14.5675
987.041,-14.5153
987.21,-14.4833
987.378,-14.4252
987.547,-14.3843
987.716,-14.3562
987.884,-14.3682
988.053,-14.3892
988.221,-14.3943
988.39,-14.3867
988.558,-14.3678
988.727,-14.2891
988.895,-14.2641
989.064,-14.2808
989.232,-14.196
989.4,-14.2985
989.569,-14.3401
989.737,-14.4464
989.905,-14.4978
990.074,-14.4532
990.242,-14.5402
990.41,-14.5385
990.579,-14.5518
990.747,-14.5279
990.915,-14.4727
991.083,-14.5754
991.252,-14.4937
991.42,-14.519
991.588,-14.5066
991.756,-14.5222
991.924,-14.4866
992.092,-14.4089
992.261,-14.4163
992.429,-14.5355
992.597,-14.5579
992.765,-14.4609
992.933,-14.4623
993.101,-14.5506
993.269,-14.5809
993.437,-14.5074
993.605,-14.5104
993.773,-14.476
993.941,-14.4896
994.109,-14.4515
994.277,-14.4495
994.444,-14.3576
994.612,-14.4574
994.78,-14.4513
994.948,-14.456
995.116,-14.4175
995.284,-14.4819
995.451,-14.4729
995.619,-14.3598
995.787,-14.2918
995.955,-14.2425
996.122,-14.346
996.29,-14.3348
996.458,-14.3189
996.625,-14.2567
996.793,-14.239
996.961,-14.2166
997.128,-14.1905
997.296,-14.1656
997.463,-14.1004
997.631,-14.1915
997.798,-14.1581
997.966,-14.1736
998.133,-14.1287
998.301,-14.1247
998.468,-14.1889
998.636,-14.1921
998.803,-14.2608
998.971,-14.2162
999.138,-14.2204
999.305,-14.1528
999.473,-14.1593
999.64,-14.0639
999.807,-14.0305
999.975,-14.0142
1000.14,-14.0234
1000.31,-13.9951
1000.48,-13.9523
1000.64,-13.9462
1000.81,-13.9763
1000.98,-13.9918
1001.15,-13.9248
1001.31,-13.9441
1001.48,-13.9722
1001.65,-13.914
1001.81,-13.9213
1001.98,-13.8539
1002.15,-13.8375
1002.32,-13.8755
1002.48,-13.7978
1002.65,-13.7864
1002.82,-13.8056
1002.98,-13.8373
1003.15,-13.8296
1003.32,-13.8441
1003.48,-13.8282
1003.65,-13.8029
1003.82,-13.7966
1003.98,-13.8312
1004.15,-13.8693
1004.32,-13.8127
1004.49,-13.7732
1004.65,-13.8149
1004.82,-13.8123
1004.99,-13.8155
1005.15,-13.7901
1005.32,-13.8098
1005.49,-13.7295
1005.65,-13.7293
1005.82,-13.7
1005.99,-13.7365
1006.15,-13.7946
1006.32,-13.8502
1006.49,-13.9001
1006.65,-13.9125
1006.82,-13.9403
1006.99,-13.9722
1007.15,-13.9867
1007.32,-13.9625
1007.49,-14.0927
1007.65,-14.047
1007.82,-13.9936
1007.98,-14.0087
1008.15,-13.982
1008.32,-13.9802
1008.48,-13.9794
1008.65,-13.938
1008.82,-13.917
1008.98,-13.8496
1009.15,-13.9134
1009.32,-13.9093
1009.48,-13.9427
1009.65,-13.971
1009.81,-13.8946
1009.98,-13.9396
1010.15,-13.9678
1010.31,-14.0114
1010.48,-14.0026
1010.65,-13.9074
1010.81,-13.9125
1010.98,-13.917
1011.14,-13.9421
1011.31,-13.9209
1011.48,-13.9661
1011.64,-13.9382
1011.81,-13.9612
1011.97,-13.9488
1012.14,-13.917
1012.31,-13.9578
1012.47,-13.9327
1012.64,-14.0228
1012.8,-14.0476
1012.97,-14.0609
1013.14,-14.0546
1013.3,-14.1862
1013.47,-14.2096
1013.63,-14.2577
1013.8,-14.2522
1013.97,-14.2035
1014.13,-14.2905
1014.3,-14.2887
1014.46,-14.2977
1014.63,-14.2877
1014.79,-14.2512
1014.96,-14.2903
1015.13,-14.2019
1015.29,-14.2209
1015.46,-14.337
1015.62,-14.3849
1015.79,-14.4028
1015.95,-14.4
1016.12,-14.3627
1016.29,-14.3411
1016.45,-14.3187
1016.62,-14.2669
1016.78,-14.2471
1016.95,-14.2755
1017.11,-14.3038
1017.28,-14.3299
1017.44,-14.3234
1017.61,-14.3168
1017.78,-14.2867
1017.94,-14.3054
1018.11,-14.2783
1018.27,-14.3445
1018.44,-14.4228
1018.6,-14.497
1018.77,-14.5585
1018.93,-14.5958
1019.1,-14.6368
1019.26,-14.6036
1019.43,-14.5773
1019.59,-14.5491
1019.76,-14.5443
1019.92,-14.5284
1020.09,-14.4803
1020.25,-14.4795
1020.42,-14.3926
1020.59,-14.4098
1020.75,-14.4079
1020.92,-14.4544
1021.08,-14.4301
1021.25,-14.4183
1021.41,-14.4079
1021.58,-14.4328
1021.74,-14.3851
1021.91,-14.4825
1022.07,-14.529
1022.24,-14.4843
1022.4,-14.4917
1022.57,-14.5583
1022.73,-14.5991
1022.89,-14.5061
1023.06,-14.3875
1023.22,-14.3576
1023.39,-14.3556
1023.55,-14.4548
1023.72,-14.3904
1023.88,-14.3865
1024.05,-14.2969
1024.21,-14.3081
1024.38,-14.3091
1024.54,-14.2738
1024.71,-14.3044
1024.87,-14.2494
1025.04,-14.2357
1025.2,-14.2626
1025.37,-14.2944
1025.53,-14.1956
1025.7,-14.1677
1025.86,-14.033
1026.02,-14.0191
1026.19,-14.045
1026.35,-14.0786
1026.52,-13.9788
1026.68,-13.9101
1026.85,-13.8655
1027.01,-13.8867
1027.18,-13.9176
1027.34,-13.8881
1027.5,-17.6352
1027.67,-18.1676
1027.83,-6.00269
1028,-15.9968
1028.16,-7.92778
1028.33,-23.4923
1028.49,-16.6521
1028.65,-13.3344
1028.82,-12.9248
1028.98,-13.2115
1029.15,-14.6451
1029.31,-22.9189
1029.48,-25.1307
1029.64,-18.0038
1029.8,-31.4794
1029.97,-18.0857
1030.13,-22.878
1030.3,-11.3684
1030.46,-2.72594
1030.62,-24.844
1030.79,-20.0927
1030.95,-16.3245
1031.12,-16.3245
1031.28,-7.60011
1031.44,-19.9698
1031.61,-8.09162
1031.77,-12.5152
1031.94,-18.782
1032.1,-21.2805
1032.26,-22.1407
1032.43,-22.2226
1032.59,-6.82188
1032.76,-11.5732
1032.92,-23.2466
1033.08,-11.2455
1033.25,-6.12557
1033.41,-14.3994
1033.57,-20.4204
1033.74,-18.6591
1033.9,-18.4134
1034.07,-13.2115
1034.23,-12.2285
1034.39,-18.1676
1034.56,-14.3584
1034.72,-21.1167
1034.88,-15.5053
1035.05,-22.4274
1035.21,-20.9938
1035.37,-22.7551
1035.54,-15.7101
1035.7,-4.52816
1035.86,-18.8639
1036.03,-18.7411
1036.19,-14.3994
1036.35,-6.57613
1036.52,-9.11561
1036.68,-26.5233
1036.84,-14.1127
1037.01,-10.9997
1037.17,-12.2285
1037.33,-15.7101
1037.5,-4.56912
1037.66,-10.713
1037.82,-8.09162
1037.99,-17.3894
1038.15,3.5818
1038.31,-31.3565
1038.48,-16.4064
1038.64,-4.61008
1038.8,-19.9698
1038.97,-15.1776
1039.13,-15.6691
1039.29,-7.14956
1039.46,1.24712
1039.62,-15.9968
1039.78,-24.4344
1039.95,-20.2975
1040.11,-9.15657
1040.27,-9.97575
1040.43,-10.5901
1040.6,-12.8429
1040.76,-14.0307
1040.92,-22.5093
1041.09,-11.6141
1041.25,-11.5732
1041.41,-8.09162
1041.57,-13.7031
1041.74,-12.4333
1041.9,10.0534
1042.06,-15.7101
1042.23,-1.53812
1042.39,-19.5602
1042.55,-5.67502
1042.71,-13.9488
1042.88,-3.1765
1043.04,-5.63406
1043.2,-3.91377
1043.36,-14.8909
1043.53,-18.1676
1043.69,-9.81192
EndSpectrumFile,DIFF DATA
