CalFile
Version,1.000000
Unique File ID,20100215-0749540571-RUDIK-00014012
Requires Spectrometer iString,fffdecdedadada,fffdecdeegdadfdjdcda
Calibration Wavelength [nm],500.000000
Calibration Integration Time [ms],50.000000
Calibration Spectra To Average,50
Calibration Boxcar Width,100
Substance,solid 7
Calibration Points Wavelength [nm],0,10,10
Calibration Points Intensity [counts],0,2832.66,2656.43
Calibration Points Intensity (raw) [counts],43.9455,2876.61,2700.37
Calibration Points Baseline [counts],618475291
Calibration Type,2
Calibration Parameters,0.0205538,0.00363236
Calibration Rsquare,0.996917
Conc. Threshold Low Warning [ppm],0.000000
Conc. Threshold High Warning [ppm],10.000000
Conc. Threshold Low Error [ppm],1.000000
Conc. Threshold High Error [ppm],12.000000
SpectrumFile,
Version,1.000000
Location,
Customer,
SampleInfo,
GPSData,255.000000,255.000000,36000000.000000,65535,65535
SystemTime,2010,2,9,4,46,40,994
Pipe km,0.000000
Pre-Dilution Factor,1.000000
Freeform Info,
Concentration,0.000000
CalibrationName,solid 7
CalibrationWavelength,500.000000
CalibrationType,2,0.020554,0.003632
CalibrationRSquared,0.996917
CalibrationConcentrations [ppm],3,0.000000,10.000000,10.000000
CalibrationCounts,3,0.000000,2832.664500,2656.425558
CalibrationWarnLow,0.000000
CalibrationWarnHigh,10.000000
CalibrationErrorLow,1.000000
CalibrationErrorHigh,12.000000
Spectrometer Name,USB4000
Spectrometer Serial,USB4F05920
IntegrationTime [ms],0.000000
WavelengthRange [nm],346.021578,1044.988724
IntensityRange [counts],-62.194535,84.808661
WavelengthCount,3648
Wavelength [nm],Intensity [counts]
346.022,-51.9547
346.239,-51.9547
346.457,-51.9547
346.675,-62.1945
346.892,-53.2654
347.11,39.4257
347.328,12.6382
347.545,9.1567
347.763,36.6404
347.981,50.3618
348.198,12.7611
348.416,47.3308
348.634,63.7146
348.851,26.0729
349.069,8.99286
349.286,27.7113
349.504,31.4386
349.721,35.7393
349.939,12.2286
350.156,51.5906
350.374,34.8792
350.591,14.0718
350.809,6.24858
351.026,43.5216
351.244,39.9991
351.461,7.35448
351.679,63.5917
351.896,52.246
352.114,42.2519
352.331,21.1988
352.548,30.4146
352.766,10.1807
352.983,43.8493
353.2,19.8471
353.418,57.3249
353.635,36.1489
353.852,8.46039
354.07,24.2297
354.287,19.5194
354.504,21.6083
354.721,18.2906
354.939,29.4725
355.156,38.2788
355.373,43.7264
355.59,36.8452
355.808,36.6404
356.025,31.2748
356.242,43.1939
356.459,52.9423
356.676,30.4146
356.893,43.8493
357.11,34.06
357.328,46.1021
357.545,24.8032
357.762,18.1678
357.979,37.6235
358.196,28.3666
358.413,27.7523
358.63,31.4386
358.847,22.8371
359.064,37.0091
359.281,69.8175
359.498,5.59323
359.715,33.5275
359.932,36.5176
360.149,26.5235
360.366,11.7371
360.583,39.6305
360.8,44.0131
361.016,43.8902
361.233,60.9293
361.45,36.7224
361.667,17.2667
361.884,28.1209
362.101,36.5176
362.318,31.9301
362.534,75.0603
362.751,45.5286
362.968,32.7493
363.185,37.9921
363.401,25.2537
363.618,21.4855
363.835,5.38843
364.052,24.4345
364.268,21.8541
364.485,8.29655
364.702,24.5574
364.918,11.7781
365.135,42.8663
365.352,49.215
365.568,21.3216
365.785,7.92791
366.002,51.222
366.218,49.8703
366.435,8.7471
366.651,57.8984
366.868,43.6445
367.084,15.1777
367.301,66.7046
367.517,38.074
367.734,30.5505
367.95,30.9777
368.167,31.3872
368.383,31.7706
368.6,32.2252
368.816,32.7206
369.033,32.7059
369.249,32.8239
369.466,32.9195
369.682,32.8964
369.898,32.7727
370.115,32.8404
370.331,32.896
370.547,32.6841
370.764,32.8357
370.98,32.873
371.196,33.0725
371.413,32.9977
371.629,33.1899
371.845,33.2086
372.061,33.1336
372.278,33.1974
372.494,33.4159
372.71,33.5098
372.926,33.5899
373.143,33.6282
373.359,33.8548
373.575,33.7148
373.791,33.5701
374.007,33.4173
374.223,33.4238
374.439,33.6035
374.656,33.7301
374.872,33.7835
375.088,33.9057
375.304,33.7682
375.52,33.7392
375.736,33.9724
375.952,34.1462
376.168,34.5527
376.384,34.7746
376.6,34.7294
376.816,34.6607
377.032,34.6118
377.248,34.673
377.464,34.6754
377.68,34.75
377.896,34.7683
378.112,34.792
378.327,34.7076
378.543,34.7643
378.759,34.6793
378.975,34.7555
379.191,34.556
379.407,34.6489
379.623,34.7541
379.838,34.7113
380.054,34.6944
380.27,34.6838
380.486,34.6872
380.701,34.7194
380.917,34.5747
381.133,34.5201
381.349,34.7005
381.564,34.6587
381.78,34.483
381.996,34.4262
382.211,34.6891
382.427,34.4439
382.643,34.2998
382.858,34.4423
383.074,34.353
383.289,34.2628
383.505,34.4001
383.721,34.5794
383.936,34.5815
384.152,34.535
384.367,34.1637
384.583,34.1148
384.798,34.0883
385.014,34.0724
385.229,34.0429
385.445,34.1012
385.66,34.1179
385.876,34.1309
386.091,34.137
386.307,34.4199
386.522,34.515
386.737,34.6346
386.953,34.5564
387.168,34.7363
387.384,34.8072
387.599,35.0756
387.814,34.8617
388.03,34.8904
388.245,35.1361
388.46,35.1512
388.675,35.3911
388.891,35.5714
389.106,35.429
389.321,35.4015
389.536,35.3654
389.752,35.4746
389.967,35.6745
390.182,35.7124
390.397,35.6727
390.612,35.9272
390.828,36.0014
391.043,36.1791
391.258,36.3117
391.473,36.5335
391.688,36.5445
391.903,36.781
392.118,36.7971
392.333,36.9353
392.548,36.8886
392.763,36.8432
392.978,36.8573
393.194,37.0722
393.409,37.2699
393.624,37.3714
393.838,37.3594
394.053,37.5515
394.268,37.7789
394.483,37.7757
394.698,37.9238
394.913,38.1594
395.128,38.1995
395.343,38.3954
395.558,38.3259
395.773,38.5346
395.988,38.7267
396.202,38.9056
396.417,38.7758
396.632,39.1017
396.847,39.2908
397.062,39.4509
397.276,39.5905
397.491,39.8224
397.706,39.6219
397.921,39.7236
398.135,39.7743
398.35,40.0176
398.565,40.3578
398.78,40.5053
398.994,40.5821
399.209,40.6608
399.424,40.8429
399.638,41.2036
399.853,41.0422
400.067,40.9762
400.282,41.1902
400.497,41.4231
400.711,41.4584
400.926,41.5871
401.14,41.7561
401.355,41.9319
401.569,41.8673
401.784,41.8889
401.998,41.9906
402.213,41.97
402.427,41.9242
402.642,41.8673
402.856,42.1202
403.071,42.5533
403.285,42.4823
403.499,42.4218
403.714,42.3187
403.928,42.7002
404.143,42.8055
404.357,42.9482
404.571,42.9017
404.786,43.0274
405,43.0175
405.214,43.1424
405.429,43.2253
405.643,43.3134
405.857,43.2773
406.071,43.5344
406.286,43.8004
406.5,44.2218
406.714,44.3223
406.928,44.516
407.142,44.6862
407.357,44.6937
407.571,44.7219
407.785,44.8409
407.999,45.228
408.213,45.5643
408.427,45.6613
408.641,46.0275
408.856,46.0364
409.07,46.2086
409.284,46.5656
409.498,46.5422
409.712,46.4705
409.926,46.6258
410.14,46.7224
410.354,46.798
410.568,46.9814
410.782,46.974
410.996,47.3883
411.21,47.5377
411.424,47.5986
411.638,47.7657
411.851,48.1117
412.065,48.0873
412.279,48.2713
412.493,48.3862
412.707,48.4388
412.921,48.6391
413.135,48.8076
413.348,49.0752
413.562,49.0407
413.776,49.2506
413.99,49.0917
414.204,49.4159
414.417,49.3941
414.631,49.4795
414.845,49.4251
415.059,49.6887
415.272,49.7165
415.486,49.7572
415.7,49.6513
415.913,49.7703
416.127,49.6517
416.341,49.6233
416.554,49.6822
416.768,49.8094
416.981,50.0317
417.195,50.3272
417.409,50.5226
417.622,50.4739
417.836,50.762
418.049,50.7828
418.263,50.6459
418.476,50.9361
418.69,51.0239
418.903,50.9591
419.117,50.9
419.33,50.6816
419.544,50.6628
419.757,50.999
419.97,51.2711
420.184,51.2397
420.397,51.1203
420.611,51.1645
420.824,51.2495
421.037,51.3862
421.251,51.2199
421.464,51.3096
421.677,51.4031
421.891,51.5044
422.104,51.4895
422.317,51.6898
422.53,51.5613
422.744,51.6367
422.957,51.7278
423.17,51.786
423.383,52.0069
423.597,51.9766
423.81,52.1045
424.023,52.2979
424.236,52.161
424.449,52.2672
424.662,52.4935
424.876,52.7921
425.089,52.9842
425.302,52.9757
425.515,53.1707
425.728,53.3246
425.941,53.2549
426.154,53.1656
426.367,53.3329
426.58,53.411
426.793,53.4205
427.006,53.3867
427.219,53.542
427.432,53.7771
427.645,53.8295
427.858,54.0174
428.071,53.9838
428.284,54.117
428.497,53.9856
428.71,54.3351
428.922,54.4822
429.135,54.7041
429.348,54.5444
429.561,54.5843
429.774,54.782
429.987,54.7422
430.199,54.3145
430.412,54.4843
430.625,54.2212
430.838,54.33
431.05,54.2501
431.263,54.4172
431.476,54.319
431.689,54.1268
431.901,53.8674
432.114,53.9864
432.327,53.9316
432.539,53.9673
432.752,53.717
432.965,53.6435
433.177,53.803
433.39,53.8334
433.602,53.6431
433.815,53.674
434.028,53.6812
434.24,53.3967
434.453,53.3072
434.665,53.3258
434.878,53.3926
435.09,53.3953
435.303,53.3669
435.515,53.4588
435.728,53.6045
435.94,53.5848
436.152,53.5642
436.365,53.5848
436.577,53.4269
436.79,53.5106
437.002,53.4472
437.214,53.3975
437.427,53.5045
437.639,53.5334
437.851,53.6748
438.064,53.8348
438.276,53.8823
438.488,54.0728
438.701,53.8377
438.913,53.8409
439.125,53.6272
439.337,53.9809
439.55,53.791
439.762,53.62
439.974,53.5997
440.186,53.6832
440.398,53.4963
440.611,53.5497
440.823,53.3368
441.035,53.4383
441.247,53.2221
441.459,52.8445
441.671,52.7326
441.883,52.5174
442.095,52.5669
442.307,52.5498
442.519,52.313
442.731,52.3676
442.944,52.3715
443.156,52.3513
443.368,52.4705
443.579,52.6342
443.791,52.6217
444.003,52.7852
444.215,52.7326
444.427,52.832
444.639,52.8263
444.851,52.7955
445.063,52.8176
445.275,52.9802
445.487,52.983
445.699,52.8349
445.91,53.0366
446.122,53.112
446.334,53.143
446.546,53.3981
446.758,53.3769
446.969,53.316
447.181,53.274
447.393,53.4246
447.605,53.2076
447.816,53.1884
448.028,53.1271
448.24,53.0623
448.451,53.1218
448.663,53.0215
448.875,53.0067
449.086,52.8282
449.298,52.2523
449.51,52.2453
449.721,52.1516
449.933,52.1926
450.144,52.0946
450.356,52.3656
450.567,52.4968
450.779,52.2076
450.99,51.9468
451.202,51.7051
451.413,51.5018
451.625,51.5346
451.836,51.3862
452.048,51.1034
452.259,51.0215
452.471,50.8582
452.682,50.7722
452.894,50.6985
453.105,50.6131
453.316,50.5314
453.528,50.5167
453.739,50.5956
453.95,50.4568
454.162,50.425
454.373,50.3508
454.584,50.0148
454.796,49.9372
455.007,50.0032
455.218,49.8332
455.429,49.8829
455.641,49.6134
455.852,49.4275
456.063,49.1491
456.274,49.0356
456.485,48.8321
456.697,48.9016
456.908,48.6835
457.119,48.7866
457.33,48.6743
457.541,48.5178
457.752,48.3799
457.963,48.2904
458.174,48.224
458.385,48.3593
458.596,48.2238
458.807,48.1928
459.018,48.1005
459.229,48.0477
459.44,48.1135
459.651,48.1843
459.862,48.0127
460.073,48.0112
460.284,48.0322
460.495,47.9754
460.706,47.967
460.917,48.2252
461.128,47.9114
461.339,48.0838
461.55,48.159
461.76,48.2425
461.971,48.1806
462.182,48.115
462.393,47.8232
462.604,47.6824
462.815,47.7873
463.025,47.8627
463.236,47.9128
463.447,47.892
463.658,47.8356
463.868,48.1013
464.079,47.9065
464.29,47.878
464.5,47.996
464.711,48.1547
464.922,48.1431
465.132,48.3595
465.343,48.1421
465.553,48.1327
465.764,48.2069
465.975,47.9399
466.185,48.0532
466.396,48.0027
466.606,47.7789
466.817,48.022
467.027,47.8297
467.238,47.7247
467.448,47.631
467.659,47.7329
467.869,47.7602
468.08,47.7653
468.29,47.9597
468.501,48.0736
468.711,47.9976
468.921,48.0261
469.132,48.1221
469.342,47.944
469.553,48.1305
469.763,48.161
469.973,48.1496
470.184,48.1266
470.394,47.9843
470.604,47.9805
470.814,47.9185
471.025,48.1164
471.235,47.9403
471.445,47.954
471.655,47.824
471.866,47.8315
472.076,47.8232
472.286,47.7853
472.496,47.823
472.706,48.1142
472.916,47.9809
473.127,48.1584
473.337,48.236
473.547,48.2034
473.757,48.0251
473.967,48.028
474.177,48.0555
474.387,48.2431
474.597,48.2617
474.807,48.2914
475.017,48.3165
475.227,48.5013
475.437,48.5083
475.647,48.4781
475.857,48.4296
476.067,48.6044
476.277,48.7302
476.487,48.6061
476.697,49.6358
476.907,49.7639
477.117,49.5938
477.326,49.3515
477.536,49.3205
477.746,49.3334
477.956,49.2722
478.166,49.1932
478.376,49.291
478.585,49.2066
478.795,49.0917
479.005,49.1628
479.215,49.0285
479.424,49.067
479.634,49.0646
479.844,48.8469
480.053,48.7652
480.263,48.5835
480.473,48.4168
480.682,48.3346
480.892,48.1288
481.102,48.1849
481.311,48.0791
481.521,48.0492
481.73,47.6705
481.94,47.7659
482.15,47.8865
482.359,47.8662
482.569,47.7653
482.778,47.9179
482.988,47.7997
483.197,48.0011
483.407,47.9528
483.616,47.9642
483.826,48.0893
484.035,48.3169
484.244,48.4231
484.454,48.5211
484.663,48.4543
484.873,48.3893
485.082,48.2813
485.291,48.1891
485.501,48.0636
485.71,47.7706
485.919,47.5483
486.129,47.5782
486.338,47.5796
486.547,47.4344
486.756,47.3272
486.966,47.2719
487.175,47.2389
487.384,47.0565
487.593,47.0184
487.803,47.1552
488.012,46.9402
488.221,46.4014
488.43,46.1173
488.639,46.0495
488.848,45.7408
489.057,45.5463
489.267,45.5174
489.476,45.5838
489.685,45.6947
489.894,45.7326
490.103,45.8618
490.312,46.0185
490.521,45.9916
490.73,45.8296
490.939,45.7864
491.148,45.8699
491.357,45.9023
491.566,45.8918
491.775,45.8677
491.984,45.58
492.193,45.5054
492.401,45.5229
492.61,45.2886
492.819,45.0662
493.028,45.0911
493.237,45.1675
493.446,45.0852
493.655,45.0685
493.863,44.8315
494.072,44.7357
494.281,44.6721
494.49,44.6579
494.699,44.5806
494.907,44.3379
495.116,44.2047
495.325,44.2456
495.533,44.1872
495.742,44.0753
495.951,43.9137
496.159,43.8829
496.368,43.9004
496.577,44.0223
496.785,43.9993
496.994,43.9895
497.202,43.952
497.411,43.9707
497.62,43.8334
497.828,44.0056
498.037,43.9532
498.245,44.0186
498.454,44.2766
498.662,44.2752
498.871,44.4879
499.079,44.5352
499.288,44.1344
499.496,44.246
499.705,44.126
499.913,43.9455
500.121,43.9198
500.33,44.2648
500.538,44.1676
500.746,44.2644
500.955,44.2159
501.163,44.2259
501.371,44.349
501.58,44.2542
501.788,43.9351
501.996,44.0143
502.205,43.8509
502.413,43.7291
502.621,43.5493
502.829,43.3883
503.038,43.0772
503.246,43.1234
503.454,42.9054
503.662,42.7585
503.87,42.5875
504.078,42.6545
504.287,42.5166
504.495,42.5751
504.703,42.5932
504.911,42.4561
505.119,42.4069
505.327,42.3152
505.535,42.0697
505.743,41.9134
505.951,41.7644
506.159,41.7225
506.367,41.8237
506.575,41.6668
506.783,41.3989
506.991,41.3972
507.199,41.2385
507.407,41.3567
507.615,41.3263
507.823,41.3512
508.031,41.4761
508.238,41.5505
508.446,41.4983
508.654,41.7897
508.862,41.4315
509.07,41.5352
509.278,41.3679
509.485,41.278
509.693,40.8882
509.901,40.8831
510.109,40.8264
510.316,40.5929
510.524,40.2135
510.732,40.2754
510.94,40.0464
511.147,39.8145
511.355,39.6266
511.563,39.5477
511.77,39.8646
511.978,39.7986
512.185,39.7273
512.393,39.8473
512.601,39.8414
512.808,39.8363
513.016,39.7057
513.223,39.6568
513.431,39.476
513.638,39.4695
513.846,39.5198
514.053,39.4281
514.261,39.0935
514.468,39.0591
514.676,39.1538
514.883,39.186
515.091,39.1312
515.298,39.0501
515.505,39.0644
515.713,38.9737
515.92,38.9158
516.128,38.7583
516.335,38.6902
516.542,38.6203
516.75,38.6674
516.957,38.5665
517.164,38.3088
517.371,38.319
517.579,38.0858
517.786,38.0184
517.993,37.6989
518.2,37.6068
518.408,37.8005
518.615,36.8901
518.822,36.6355
519.029,36.6317
519.236,36.7156
519.443,36.6058
519.65,36.434
519.858,36.3969
520.065,36.4348
520.272,36.3729
520.479,36.4018
520.686,36.3378
520.893,36.1273
521.1,35.882
521.307,35.7283
521.514,35.6006
521.721,35.547
521.928,35.4455
522.135,35.2128
522.342,35.3104
522.549,35.3102
522.756,35.3051
522.963,35.377
523.17,35.484
523.376,35.289
523.583,35.3159
523.79,35.7416
523.997,35.5199
524.204,35.357
524.411,35.3517
524.617,35.3876
524.824,35.4436
525.031,35.1182
525.238,34.914
525.444,34.8498
525.651,34.6952
525.858,34.5992
526.065,34.5682
526.271,34.5711
526.478,34.4494
526.685,34.5024
526.891,34.4877
527.098,34.4419
527.304,34.4865
527.511,34.7111
527.718,34.751
527.924,34.7386
528.131,34.892
528.337,34.8824
528.544,34.835
528.75,34.7871
528.957,34.882
529.163,35.0021
529.37,34.9236
529.576,34.7496
529.783,34.8062
529.989,34.8767
530.196,34.8943
530.402,34.796
530.608,34.9142
530.815,34.7598
531.021,34.6852
531.228,34.4763
531.434,34.3469
531.64,34.3062
531.847,34.265
532.053,33.9693
532.259,34.0478
532.465,34.0307
532.672,34.6931
532.878,34.6014
533.084,34.3979
533.29,34.4973
533.497,34.4305
533.703,34.4959
533.909,34.4657
534.115,34.4839
534.321,34.4739
534.527,34.4021
534.734,34.178
534.94,33.9029
535.146,34.1352
535.352,33.9985
535.558,34.2652
535.764,34.3722
535.97,34.3663
536.176,34.4195
536.382,34.5122
536.588,34.6214
536.794,34.5042
537,34.351
537.206,34.278
537.412,34.3021
537.618,34.1666
537.824,34.1348
538.03,34.1254
538.235,33.952
538.441,33.9789
538.647,34.1348
538.853,34.1058
539.059,34.0148
539.265,33.922
539.471,33.9934
539.676,34.0031
539.882,33.8183
540.088,33.6494
540.294,33.6325
540.499,33.328
540.705,33.2123
540.911,33.5153
541.116,33.4915
541.322,33.6543
541.528,33.8226
541.733,33.9165
541.939,33.3729
542.145,33.3339
542.35,33.1964
542.556,33.2412
542.762,33.3089
542.967,32.9867
543.173,32.8936
543.378,32.9865
543.584,32.8172
543.789,32.9349
543.995,32.8836
544.2,33.0022
544.406,33.0918
544.611,33.2828
544.817,33.2962
545.022,33.2074
545.227,33.1511
545.433,33.2691
545.638,33.091
545.844,33.1096
546.049,33.1436
546.254,32.9584
546.46,33.0882
546.665,33.0621
546.87,32.9781
547.076,33.1128
547.281,33.1532
547.486,33.2708
547.691,33.468
547.897,33.227
548.102,33.1717
548.307,33.2111
548.512,33.1475
548.717,33.2447
548.923,33.2494
549.128,33.3295
549.333,33.2341
549.538,33.2308
549.743,33.0417
549.948,33.2322
550.153,33.0407
550.358,33.209
550.563,33.1206
550.768,33.0766
550.974,33.0091
551.179,33.2891
551.384,32.9777
551.589,33.0344
551.793,32.9358
551.998,33.133
552.203,33.1681
552.408,33.2832
552.613,33.2702
552.818,33.3735
553.023,33.426
553.228,32.9622
553.433,32.8646
553.638,32.7951
553.842,32.5726
554.047,32.4671
554.252,32.4226
554.457,32.4557
554.662,32.6058
554.866,32.605
555.071,32.6227
555.276,32.5857
555.481,32.627
555.685,32.6888
555.89,32.8402
556.095,32.755
556.299,32.7291
556.504,32.7338
556.709,32.5885
556.913,32.5529
557.118,32.462
557.322,32.5341
557.527,32.5143
557.732,32.4587
557.936,32.2623
558.141,32.2231
558.345,32.2211
558.55,32.2213
558.754,32.1363
558.959,32.2462
559.163,32.3633
559.368,32.5082
559.572,32.2509
559.777,32.0379
559.981,31.947
560.185,31.8951
560.39,31.8989
560.594,31.7897
560.798,31.8184
561.003,31.9012
561.207,32.1842
561.411,32.021
561.616,32.0577
561.82,31.9916
562.024,31.8347
562.229,31.8121
562.433,31.9432
562.637,32.1532
562.841,32.0422
563.046,31.9796
563.25,32.1251
563.454,32.2323
563.658,32.0479
563.862,32.1188
564.066,32.0029
564.27,31.9631
564.475,31.8133
564.679,32.1221
564.883,32.3203
565.087,31.8547
565.291,32.0481
565.495,32.1239
565.699,31.9641
565.903,31.6346
566.107,31.4453
566.311,31.4734
566.515,31.503
566.719,31.657
566.923,31.6218
567.127,31.7239
567.331,31.7129
567.534,31.4814
567.738,31.6917
567.942,31.6846
568.146,31.9947
568.35,31.9262
568.554,31.7797
568.758,31.7239
568.961,31.7903
569.165,31.6277
569.369,31.3286
569.573,31.4688
569.776,31.471
569.98,31.4341
570.184,31.268
570.388,31.2318
570.591,31.181
570.795,31.1346
570.999,30.9787
571.202,30.9159
571.406,30.9102
571.609,31.0343
571.813,31.0251
572.017,31.1853
572.22,31.2794
572.424,31.5118
572.627,31.4174
572.831,31.4728
573.034,31.3118
573.238,31.6772
573.441,31.6316
573.645,31.5772
573.848,30.9076
574.052,30.7044
574.255,30.7574
574.459,30.6944
574.662,30.7146
574.865,30.8617
575.069,30.8831
575.272,30.962
575.475,30.9332
575.679,30.9373
575.882,30.9787
576.085,31.0985
576.289,30.984
576.492,30.9098
576.695,30.6867
576.899,30.6481
577.102,30.7472
577.305,30.632
577.508,30.8032
577.711,30.8283
577.915,30.9418
578.118,31.0341
578.321,31.0626
578.524,30.9281
578.727,30.8963
578.93,30.8857
579.133,30.9126
579.336,30.855
579.539,30.7384
579.743,31.3885
579.946,31.2228
580.149,31.2279
580.352,31.2841
580.555,31.1199
580.758,31.3485
580.961,31.5841
581.163,31.5191
581.366,31.7294
581.569,31.7728
581.772,31.6701
581.975,31.4859
582.178,31.3813
582.381,31.3171
582.584,31.204
582.787,31.1307
582.989,31.298
583.192,31.438
583.395,31.5305
583.598,31.668
583.801,31.6572
584.003,31.6581
584.206,31.6173
584.409,31.4859
584.612,31.6509
584.814,31.6479
585.017,31.72
585.22,31.58
585.422,31.4433
585.625,31.5354
585.827,31.515
586.03,31.6193
586.233,31.7312
586.435,31.5737
586.638,31.5933
586.84,31.4755
587.043,31.5069
587.245,31.5625
587.448,31.4492
587.65,31.4875
587.853,31.3803
588.055,31.2336
588.258,31.2629
588.46,31.0484
588.663,30.9324
588.865,31.029
589.068,31.0516
589.27,31.0058
589.472,30.9962
589.675,30.8024
589.877,30.8478
590.079,30.8601
590.282,30.6691
590.484,30.7323
590.686,30.6137
590.889,30.3598
591.091,30.5002
591.293,30.3969
591.495,30.2121
591.697,30.3038
591.9,30.3156
592.102,30.2259
592.304,30.358
592.506,30.4073
592.708,30.3368
592.91,30.359
593.113,30.3983
593.315,30.4872
593.517,30.6267
593.719,30.632
593.921,30.5562
594.123,30.522
594.325,30.6233
594.527,30.6322
594.729,30.6997
594.931,30.7688
595.133,30.8077
595.335,30.7325
595.537,30.5766
595.739,30.4788
595.941,30.3349
596.143,31.3491
596.344,31.2819
596.546,31.4863
596.748,31.3479
596.95,31.2766
597.152,31.1882
597.354,31.0865
597.556,31.4488
597.757,31.3277
597.959,31.3357
598.161,31.2485
598.363,31.3072
598.564,31.3249
598.766,31.4125
598.968,31.5042
599.169,31.5342
599.371,31.4425
599.573,31.4518
599.774,31.2599
599.976,31.1268
600.178,31.0559
600.379,31.1494
600.581,30.9954
600.782,30.9858
600.984,31.0388
601.185,31.0763
601.387,31.113
601.589,31.1869
601.79,31.1319
601.992,30.8464
602.193,30.9508
602.394,30.9196
602.596,30.9181
602.797,31.0441
602.999,31.2921
603.2,31.3585
603.402,31.1199
603.603,31.0924
603.804,31.2617
604.006,31.2739
604.207,31.212
604.408,31.199
604.61,31.0333
604.811,30.902
605.012,30.8525
605.213,30.8165
605.415,30.584
605.616,30.3928
605.817,30.3274
606.018,30.1986
606.219,30.0859
606.421,30.1224
606.622,30.1864
606.823,30.3557
607.024,30.4254
607.225,30.4385
607.426,30.4014
607.627,30.4419
607.828,30.3321
608.029,30.3223
608.23,30.3207
608.432,30.3046
608.633,30.35
608.834,30.2673
609.035,30.3645
609.235,30.3626
609.436,30.1462
609.637,30.0998
609.838,30.1813
610.039,30.2072
610.24,29.9445
610.441,30.1202
610.642,30.2092
610.843,30.3158
611.044,30.3164
611.244,30.2948
611.445,30.2673
611.646,30.35
611.847,30.2463
612.048,30.3557
612.248,30.3977
612.449,30.5181
612.65,30.4181
612.85,30.3624
613.051,30.4484
613.252,30.5416
613.453,30.4199
613.653,30.5352
613.854,30.282
614.054,30.2675
614.255,30.3388
614.456,30.2098
614.656,30.2976
614.857,30.2218
615.057,30.2487
615.258,30.1695
615.458,30.0943
615.659,30.1087
615.859,30.0719
616.06,30.2282
616.26,30.2294
616.461,30.3716
616.661,30.2072
616.862,30.2004
617.062,30.3531
617.263,30.4658
617.463,30.415
617.663,30.3015
617.864,30.3078
618.064,30.2546
618.264,30.1436
618.465,30.2259
618.665,30.3983
618.865,30.6575
619.065,30.878
619.266,30.8069
619.466,30.9045
619.666,30.7537
619.866,30.6856
620.067,31.0094
620.267,30.1157
620.467,30.0177
620.667,30.0556
620.867,30.1744
621.067,30.4008
621.267,30.25
621.467,30.0264
621.668,30.0079
621.868,29.9078
622.068,30.1953
622.268,30.3337
622.468,30.3755
622.668,30.5228
622.868,30.4189
623.068,30.4442
623.268,30.3832
623.468,30.2966
623.667,30.1216
623.867,30.1041
624.067,30.1521
624.267,30.0886
624.467,30.2548
624.667,30.25
624.867,30.3706
625.067,30.3728
625.266,30.2131
625.466,30.0158
625.666,30.035
625.866,30.2106
626.066,30.0996
626.265,29.9865
626.465,29.9512
626.665,29.8986
626.864,29.9035
627.064,29.9145
627.264,30.2049
627.463,29.9765
627.663,30.2585
627.863,30.4937
628.062,30.535
628.262,30.7987
628.461,30.9573
628.661,30.8745
628.861,30.9774
629.06,30.9408
629.26,30.7869
629.459,30.7101
629.659,30.7731
629.858,30.8658
630.058,31.029
630.257,30.8067
630.457,30.7949
630.656,30.9412
630.855,30.8947
631.055,30.9583
631.254,31.0891
631.453,31.0732
631.653,30.931
631.852,31.0626
632.052,31.0003
632.251,30.9267
632.45,30.8607
632.649,30.898
632.849,30.8144
633.048,30.8851
633.247,30.878
633.446,30.9377
633.646,30.8853
633.845,30.8344
634.044,31.0121
634.243,30.9245
634.442,31.0019
634.641,31.0694
634.84,31.1794
635.04,31.0997
635.239,31.4158
635.438,31.3353
635.637,31.5095
635.836,31.4198
636.035,31.4775
636.234,31.4885
636.433,30.4411
636.632,30.5383
636.831,30.4953
637.03,30.4438
637.229,30.3431
637.428,30.3241
637.627,30.2846
637.825,29.9765
638.024,30.0992
638.223,30.1287
638.422,30.1515
638.621,30.1022
638.82,30.1935
639.019,30.0576
639.217,29.8506
639.416,29.7966
639.615,30.0537
639.814,29.9869
640.012,30.0148
640.211,30.0892
640.41,29.9306
640.609,29.9308
640.807,30.1817
641.006,30.2367
641.205,30.3973
641.403,30.4126
641.602,30.401
641.8,30.2192
641.999,30.2942
642.198,30.2952
642.396,30.3099
642.595,30.2455
642.793,30.3596
642.992,30.3688
643.19,30.2196
643.389,30.3578
643.587,30.4044
643.786,30.6655
643.984,30.7133
644.183,30.6471
644.381,30.7529
644.579,30.7682
644.778,30.9049
644.976,31.0871
645.174,31.0602
645.373,31.0814
645.571,31.3445
645.769,31.4834
645.968,31.5564
646.166,31.6483
646.364,31.7145
646.563,31.7628
646.761,31.7681
646.959,31.6668
647.157,31.6947
647.355,31.6829
647.554,31.5755
647.752,31.4602
647.95,31.4834
648.148,31.4188
648.346,31.5761
648.544,31.4635
648.742,31.3985
648.94,31.1967
649.139,31.2232
649.337,31.1627
649.535,31.3561
649.733,31.4237
649.931,31.502
650.129,31.4003
650.327,31.6218
650.525,31.7353
650.723,31.6265
650.92,31.4628
651.118,31.4932
651.316,31.4592
651.514,31.5093
651.712,31.5344
651.91,31.7243
652.108,31.7062
652.306,31.8502
652.503,31.6703
652.701,31.8168
652.899,31.8647
653.097,31.652
653.294,31.59
653.492,31.4622
653.69,31.4398
653.888,31.3966
654.085,31.3504
654.283,31.4484
654.481,31.5576
654.678,31.4745
654.876,31.6579
655.074,31.7919
655.271,31.9825
655.469,32.0481
655.666,32.2227
655.864,32.0571
656.062,31.7355
656.259,31.6988
656.457,31.6434
656.654,31.7618
656.852,31.6153
657.049,31.5279
657.246,31.3076
657.444,31.2126
657.641,31.2803
657.839,31.2464
658.036,31.2102
658.234,31.3196
658.431,31.2691
658.628,31.1596
658.826,30.8751
659.023,30.7266
659.22,31.0357
659.418,30.9587
659.615,31.1692
659.812,31.2642
660.009,31.0259
660.207,31.1831
660.404,31.3228
660.601,31.2032
660.798,31.1399
660.995,30.8018
661.193,30.9353
661.39,31.1723
661.587,31.331
661.784,31.2444
661.981,31.1761
662.178,31.1058
662.375,31.0459
662.572,31.235
662.769,31.4969
662.966,31.4565
663.163,31.374
663.36,31.5274
663.557,31.7738
663.754,32.0477
663.951,31.7642
664.148,31.7292
664.345,31.7174
664.542,31.7441
664.739,31.7467
664.936,31.6261
665.133,31.7885
665.33,31.9036
665.526,31.7622
665.723,31.6216
665.92,31.4997
666.117,31.4692
666.314,31.5639
666.51,31.6322
666.707,31.568
666.904,31.538
667.101,31.2269
667.297,31.3748
667.494,31.0793
667.691,30.8293
667.887,30.8267
668.084,30.6092
668.281,30.5145
668.477,30.5742
668.674,30.6679
668.87,30.7981
669.067,30.8815
669.264,30.9006
669.46,30.7665
669.657,30.7323
669.853,30.7089
670.05,30.9147
670.246,30.6473
670.443,30.6278
670.639,30.5754
670.836,30.6812
671.032,30.5636
671.228,30.5603
671.425,30.6922
671.621,30.7576
671.817,31.0518
672.014,31.2171
672.21,31.2464
672.406,31.2415
672.603,31.3141
672.799,31.4325
672.995,31.2878
673.192,31.1688
673.388,31.1299
673.584,31.1672
673.78,31.0962
673.977,31.0363
674.173,30.9823
674.369,30.8381
674.565,30.7109
674.761,30.7694
674.957,30.6467
675.153,30.7898
675.349,30.5509
675.546,30.7405
675.742,30.9186
675.938,31.0192
676.134,31.128
676.33,31.1619
676.526,31.1066
676.722,31.3573
676.918,31.354
677.114,31.481
677.31,31.5411
677.506,31.8207
677.701,31.9124
677.897,32.0569
678.093,32.1111
678.289,32.2011
678.485,32.2119
678.681,32.2869
678.877,32.5588
679.072,32.5604
679.268,32.4622
679.464,32.5107
679.66,32.602
679.856,32.4477
680.051,32.756
680.247,32.828
680.443,32.6778
680.638,32.779
680.834,32.5192
681.03,32.4856
681.225,32.5549
681.421,32.6615
681.617,32.602
681.812,32.6001
682.008,32.5474
682.203,32.5459
682.399,32.398
682.595,32.3607
682.79,32.5469
682.986,32.4469
683.181,32.462
683.377,32.3615
683.572,32.3715
683.767,32.509
683.963,32.376
684.158,32.4257
684.354,32.3342
684.549,32.378
684.745,32.41
684.94,32.5396
685.135,32.2953
685.331,32.2939
685.526,32.2682
685.721,32.4614
685.916,32.5663
686.112,32.6348
686.307,32.756
686.502,32.8017
686.697,32.7727
686.893,32.9924
687.088,33.2759
687.283,33.4709
687.478,33.6096
687.673,33.6392
687.869,33.5836
688.064,33.4305
688.259,33.5106
688.454,33.6604
688.649,33.588
688.844,33.8016
689.039,33.6946
689.234,33.6905
689.429,33.5948
689.624,33.6579
689.819,33.6977
690.014,33.435
690.209,33.5732
690.404,33.6084
690.599,33.7209
690.794,33.8371
690.989,33.9426
691.184,34.0494
691.378,33.9019
691.573,33.972
691.768,33.8136
691.963,33.9035
692.158,33.7723
692.353,33.8328
692.547,33.7309
692.742,33.8935
692.937,34.0298
693.132,34.1209
693.326,34.1197
693.521,34.1876
693.716,34.1111
693.91,34.1688
694.105,34.1878
694.3,34.1839
694.494,34.1124
694.689,34.0906
694.883,34.0088
695.078,33.7871
695.273,33.8801
695.467,34.0035
695.662,34.1476
695.856,34.2098
696.051,34.3748
696.245,34.5609
696.44,34.6204
696.634,34.8651
696.829,34.8297
697.023,34.8596
697.217,34.9134
697.412,34.9542
697.606,34.8928
697.801,34.968
697.995,34.8229
698.189,34.8405
698.384,34.9077
698.578,34.8026
698.772,34.8231
698.967,34.6463
699.161,34.6893
699.355,34.7396
699.549,34.6939
699.744,34.6703
699.938,34.6736
700.132,34.5933
700.326,34.7522
700.52,34.695
700.714,34.524
700.909,34.4449
701.103,34.4193
701.297,34.2299
701.491,34.3718
701.685,34.3512
701.879,33.9159
702.073,33.8479
702.267,33.8862
702.461,34.1201
702.655,34.0952
702.849,33.8652
703.043,33.6276
703.237,33.8018
703.431,33.706
703.625,33.6836
703.819,33.5781
704.013,33.5208
704.206,33.4191
704.4,33.4468
704.594,33.4505
704.788,33.4564
704.982,33.3462
705.176,33.4682
705.369,33.4841
705.563,33.3692
705.757,33.3256
705.951,33.3431
706.144,33.4949
706.338,33.631
706.532,33.6606
706.725,33.7533
706.919,33.6993
707.113,33.6583
707.306,33.9161
707.5,33.9314
707.693,34.0017
707.887,34.018
708.081,34.0372
708.274,34.0714
708.468,34.0787
708.661,34.2935
708.855,34.4686
709.048,34.4468
709.242,34.4519
709.435,34.6383
709.629,34.8307
709.822,34.9407
710.015,34.8551
710.209,34.9238
710.402,34.8411
710.596,34.8415
710.789,34.7622
710.982,34.5849
711.176,34.6913
711.369,34.6579
711.562,34.5256
711.756,34.4478
711.949,34.4947
712.142,34.4559
712.335,34.4932
712.529,34.4239
712.722,34.2389
712.915,34.1268
713.108,34.1175
713.301,34.1044
713.494,34.2008
713.688,34.3253
713.881,34.254
714.074,34.1356
714.267,33.9642
714.46,34.1531
714.653,33.9654
714.846,33.8038
715.039,33.865
715.232,33.7234
715.425,33.5324
715.618,33.5106
715.811,33.3549
716.004,33.3529
716.197,33.3178
716.39,33.4943
716.583,33.2459
716.775,33.2865
716.968,33.077
717.161,33.0566
717.354,32.9871
717.547,32.9127
717.74,33.0674
717.932,33.0008
718.125,33.0038
718.318,33.1079
718.511,33.2644
718.703,33.2797
718.896,33.38
719.089,33.2422
719.282,33.1153
719.474,33.2547
719.667,33.0986
719.86,33.1774
720.052,33.271
720.245,33.2608
720.437,33.3757
720.63,33.5925
720.823,33.6852
721.015,33.716
721.208,33.7623
721.4,33.6783
721.593,33.6119
721.785,33.3733
721.978,33.2528
722.17,33.2045
722.362,33.1075
722.555,33.2443
722.747,32.9969
722.94,33.048
723.132,32.9999
723.324,33.035
723.517,33.076
723.709,33.0582
723.901,33.1098
724.094,33.0929
724.286,32.9692
724.478,32.948
724.671,32.8569
724.863,32.8762
725.055,32.797
725.247,32.8508
725.439,32.7277
725.632,32.9127
725.824,32.7638
726.016,32.4522
726.208,32.3328
726.4,32.1903
726.592,32.0465
726.784,32.0913
726.976,32.1223
727.169,32.1402
727.361,31.8527
727.553,31.8097
727.745,31.7626
727.937,31.933
728.129,31.8052
728.321,31.765
728.512,31.8066
728.704,31.8294
728.896,31.8506
729.088,31.7005
729.28,31.6766
729.472,31.5513
729.664,31.3874
729.856,31.2289
730.048,31.0799
730.239,31.1089
730.431,30.922
730.623,30.973
730.815,31.0783
731.006,31.1835
731.198,31.1617
731.39,31.2087
731.582,31.1154
731.773,31.1403
731.965,30.9675
732.157,30.9055
732.348,30.934
732.54,30.9165
732.732,31.0351
732.923,31.1474
733.115,31.0571
733.306,31.0017
733.498,30.9253
733.689,31.0143
733.881,31.0235
734.072,30.9935
734.264,31.0188
734.455,31.0054
734.647,30.7894
734.838,30.6934
735.03,30.5493
735.221,30.6881
735.412,30.6769
735.604,30.9192
735.795,31.0616
735.987,31.0918
736.178,31.0846
736.369,31.1873
736.561,31.1739
736.752,31.3583
736.943,31.3518
737.134,31.3163
737.326,31.1207
737.517,31.0561
737.708,31.1148
737.899,31.0857
738.09,31.0325
738.282,31.0956
738.473,31.0804
738.664,31.1062
738.855,31.2167
739.046,31.096
739.237,31.0561
739.428,31.2095
739.619,31.1996
739.81,31.3754
740.001,31.2672
740.192,31.1407
740.383,31.2796
740.574,31.4692
740.765,31.3453
740.956,31.2452
741.147,31.3883
741.338,31.3157
741.529,31.4111
741.72,31.3167
741.911,31.1535
742.102,31.4504
742.292,31.5325
742.483,31.4537
742.674,31.5452
742.865,31.7168
743.056,31.6267
743.246,31.9128
743.437,32.0112
743.628,32.0173
743.819,31.9725
744.009,32.2258
744.2,32.1877
744.391,32.347
744.581,32.3409
744.772,32.3226
744.963,32.3444
745.153,32.3311
745.344,32.2928
745.534,32.6213
745.725,32.5068
745.916,32.2859
746.106,32.2513
746.297,32.2853
746.487,32.008
746.678,32.0414
746.868,31.966
747.058,32.0128
747.249,31.8824
747.439,31.6092
747.63,31.6126
747.82,31.7225
748.011,31.7585
748.201,31.4133
748.391,31.352
748.582,31.5113
748.772,31.408
748.962,31.6081
749.152,31.6273
749.343,31.7479
749.533,31.6507
749.723,31.4382
749.913,31.5694
750.104,31.6935
750.294,31.8885
750.484,31.8313
750.674,31.9336
750.864,31.9525
751.054,32.1086
751.245,32.1575
751.435,32.2156
751.625,32.4177
751.815,32.5639
752.005,32.5586
752.195,32.4984
752.385,32.7255
752.575,32.6558
752.765,32.7505
752.955,32.7063
753.145,32.8345
753.335,32.8174
753.525,32.8457
753.715,32.8343
753.904,33.003
754.094,32.9759
754.284,32.9317
754.474,32.9433
754.664,32.8546
754.854,32.9129
755.044,32.9983
755.233,33.0499
755.423,33.1558
755.613,33.0865
755.803,33.2098
755.992,33.2644
756.182,33.3032
756.372,33.4
756.561,33.6726
756.751,33.7983
756.941,33.5347
757.13,33.4786
757.32,33.4546
757.51,33.4487
757.699,33.7009
757.889,33.5793
758.078,33.5271
758.268,33.4833
758.457,33.5047
758.647,33.4236
758.836,33.2644
759.026,33.0955
759.215,33.1179
759.405,33.0963
759.594,33.1825
759.784,33.4423
759.973,33.5917
760.162,33.7211
760.352,33.8966
760.541,33.9355
760.73,33.9137
760.92,33.6449
761.109,33.7592
761.298,33.7348
761.488,33.9599
761.677,33.9783
761.866,33.8558
762.055,33.9051
762.244,33.9369
762.434,33.993
762.623,34.0818
762.812,34.0781
763.001,33.8929
763.19,33.9125
763.379,33.9404
763.568,33.8713
763.758,34.192
763.947,34.1101
764.136,34.136
764.325,34.2071
764.514,34.1389
764.703,34.0005
764.892,34.2375
765.081,34.2297
765.27,34.3504
765.459,34.2346
765.648,34.5615
765.836,34.4358
766.025,34.3683
766.214,34.222
766.403,34.1352
766.592,34.1831
766.781,34.1154
766.97,33.9919
767.158,34.0388
767.347,33.9901
767.536,34.0174
767.725,33.8222
767.913,33.7928
768.102,33.8576
768.291,34.0186
768.48,33.9155
768.668,34.036
768.857,33.9764
769.046,33.9469
769.234,33.9707
769.423,33.9394
769.611,34.0345
769.8,33.9078
769.989,33.9143
770.177,34.0545
770.366,34.0908
770.554,33.8454
770.743,33.7698
770.931,33.5984
771.12,33.6738
771.308,33.702
771.496,33.7221
771.685,33.7631
771.873,33.6753
772.062,33.7672
772.25,33.8289
772.438,33.7708
772.627,33.6765
772.815,33.7922
773.003,33.628
773.192,33.8045
773.38,33.7792
773.568,33.75
773.757,33.7417
773.945,33.587
774.133,33.6828
774.321,33.576
774.509,33.5106
774.698,33.2795
774.886,33.0507
775.074,33.1137
775.262,32.9478
775.45,33.1644
775.638,33.1569
775.826,33.0945
776.014,33.1385
776.202,33.0833
776.39,33.023
776.578,32.8638
776.766,32.9863
776.954,32.9547
777.142,32.9635
777.33,33.0694
777.518,33.1495
777.706,33.2278
777.894,33.2231
778.082,33.4658
778.27,33.4676
778.458,33.2834
778.646,33.2795
778.833,33.2298
779.021,33.3276
779.209,33.0328
779.397,32.9616
779.585,32.7884
779.772,32.7275
779.96,32.6837
780.148,32.5981
780.335,32.4463
780.523,32.5584
780.711,32.5926
780.898,32.4618
781.086,32.5802
781.274,32.2242
781.461,32.1889
781.649,32.345
781.836,32.3205
782.024,32.2156
782.212,32.1785
782.399,32.0389
782.587,32.1054
782.774,31.9965
782.962,31.9821
783.149,31.8653
783.336,32.0355
783.524,31.7514
783.711,31.9819
783.899,32.0065
784.086,32.1844
784.273,32.0102
784.461,32.0652
784.648,31.9032
784.836,31.7785
785.023,31.7137
785.21,32.2015
785.397,32.1746
785.585,32.1459
785.772,32.088
785.959,31.9735
786.146,32.1775
786.334,32.1143
786.521,32.0581
786.708,32.1339
786.895,31.9242
787.082,32.0269
787.269,31.9482
787.456,32.0363
787.643,32.0587
787.83,31.8085
788.018,31.8415
788.205,31.6864
788.392,31.6191
788.579,31.6057
788.766,31.5331
788.953,31.4388
789.14,31.3868
789.326,31.4023
789.513,31.1937
789.7,30.956
789.887,30.9481
790.074,31.1286
790.261,30.9351
790.448,30.9654
790.635,30.9501
790.821,30.9251
791.008,30.8906
791.195,31.0804
791.382,30.986
791.569,31.2876
791.755,31.0651
791.942,31.1531
792.129,31.1101
792.315,31.073
792.502,31.0333
792.689,30.7421
792.875,30.6873
793.062,30.5632
793.249,30.5988
793.435,30.531
793.622,30.4486
793.808,30.4527
793.995,30.393
794.181,30.1473
794.368,29.8724
794.554,29.7741
794.741,29.8815
794.927,29.8889
795.114,29.9139
795.3,29.9936
795.487,29.7819
795.673,29.9217
795.859,29.9673
796.046,30.1144
796.232,30.028
796.418,30.1273
796.605,30.1642
796.791,30.102
796.977,30.0095
797.164,29.9394
797.35,29.8353
797.536,29.561
797.722,29.4118
797.909,29.2294
798.095,29.0852
798.281,28.9132
798.467,29.0112
798.653,29.0638
798.839,28.9853
799.025,29.0391
799.212,28.8683
799.398,28.7944
799.584,29.068
799.77,28.9977
799.956,28.761
800.142,28.8133
800.328,28.7002
800.514,28.805
800.7,28.7029
800.886,28.5199
801.072,28.5054
801.258,28.7748
801.443,28.6366
801.629,28.8427
801.815,28.7
802.001,28.7153
802.187,28.8011
802.373,28.9525
802.559,28.5902
802.744,28.5229
802.93,28.4096
803.116,28.3263
803.302,28.4726
803.487,28.902
803.673,29.0511
803.859,29.053
804.045,29.0907
804.23,29.2093
804.416,29.1347
804.601,29.1414
804.787,29.1699
804.973,29.2898
805.158,29.2356
805.344,29.4615
805.529,29.7185
805.715,29.5836
805.9,29.5392
806.086,29.6309
806.271,29.4018
806.457,29.5561
806.642,29.5331
806.828,29.498
807.013,29.4037
807.199,29.3821
807.384,29.3847
807.569,29.3806
807.755,29.3641
807.94,29.5033
808.125,29.6087
808.311,29.682
808.496,29.9496
808.681,29.7876
808.867,29.9039
809.052,29.7778
809.237,29.6967
809.422,29.756
809.608,29.7044
809.793,29.7179
809.978,29.732
810.163,29.6769
810.348,29.6771
810.533,29.8383
810.718,29.896
810.903,29.83
811.089,29.7022
811.274,29.5826
811.459,29.5459
811.644,29.4236
811.829,29.4962
812.014,29.5761
812.199,29.7998
812.384,29.7703
812.569,29.8059
812.754,29.9624
812.938,30.0733
813.123,30.0511
813.308,30.1018
813.493,29.9828
813.678,30.0867
813.863,30.1452
814.048,30.2518
814.232,29.9981
814.417,30.082
814.602,30.1167
814.787,29.992
814.971,29.7841
815.156,29.6559
815.341,29.379
815.526,29.1695
815.71,29.1155
815.895,29.2154
816.079,29.3472
816.264,29.5259
816.449,29.4868
816.633,29.6883
816.818,29.6812
817.002,29.571
817.187,29.7159
817.371,29.8147
817.556,29.9598
817.741,29.9838
817.925,29.9724
818.109,29.873
818.294,29.8764
818.478,29.7301
818.663,29.6317
818.847,29.5443
819.032,29.6665
819.216,29.5551
819.4,29.5946
819.585,29.5166
819.769,29.4257
819.953,29.4723
820.137,29.4587
820.322,29.4738
820.506,29.7305
820.69,29.5327
820.874,29.585
821.059,29.6215
821.243,29.6782
821.427,29.5068
821.611,29.8483
821.795,29.8807
821.979,29.9496
822.164,30.0138
822.348,30.0219
822.532,29.465
822.716,29.4587
822.9,29.4944
823.084,29.3052
823.268,29.1966
823.452,29.2093
823.636,29.2103
823.82,29.0473
824.004,29.1371
824.188,29.1577
824.372,28.9979
824.555,28.9515
824.739,29.0277
824.923,29.2364
825.107,29.3578
825.291,29.2219
825.475,29.292
825.658,29.2555
825.842,29.0852
826.026,29.4216
826.21,29.3299
826.394,29.322
826.577,29.3764
826.761,29.4664
826.945,29.6702
827.128,29.5298
827.312,29.3279
827.496,29.4269
827.679,29.359
827.863,29.3319
828.046,29.3307
828.23,29.3666
828.414,29.1088
828.597,29.0314
828.781,28.862
828.964,29.1082
829.148,29.0986
829.331,29.2323
829.515,29.2109
829.698,29.2341
829.881,29.4022
830.065,29.3501
830.248,29.2402
830.432,29.1624
830.615,29.2129
830.798,29.2541
830.982,29.1483
831.165,28.9511
831.348,28.9821
831.532,29.1251
831.715,28.9093
831.898,29.0954
832.081,29.182
832.265,29.1752
832.448,29.0299
832.631,29.2154
832.814,29.208
832.997,29.1891
833.18,29.057
833.363,29.2109
833.547,29.1502
833.73,29.1571
833.913,29.0611
834.096,29.075
834.279,29.1404
834.462,29.0216
834.645,29.2117
834.828,29.2665
835.011,29.2213
835.194,29.2506
835.377,29.3592
835.56,29.283
835.743,29.2847
835.925,29.4175
836.108,29.3998
836.291,29.4503
836.474,29.4534
836.657,29.3892
836.84,29.381
837.022,29.3833
837.205,29.2129
837.388,29.1404
837.571,29.1634
837.753,29.2618
837.936,29.3503
838.119,29.4226
838.302,29.0811
838.484,28.9409
838.667,28.5727
838.849,28.5981
839.032,28.5032
839.215,28.6267
839.397,28.632
839.58,28.9525
839.762,28.8743
839.945,28.8064
840.127,28.9611
840.31,28.5617
840.492,28.463
840.675,28.3029
840.857,28.2731
841.04,28.3326
841.222,28.2489
841.405,28.2896
841.587,28.3884
841.769,28.1792
841.952,28.0811
842.134,28.1504
842.316,28.1404
842.499,28.0159
842.681,28.0386
842.863,27.934
843.045,27.9181
843.228,28.0502
843.41,27.8073
843.592,27.8203
843.774,27.7965
843.957,27.761
844.139,27.6608
844.321,27.6769
844.503,27.5242
844.685,27.4933
844.867,27.3526
845.049,27.4464
845.231,27.4191
845.413,27.2677
845.595,27.2956
845.777,27.2764
845.959,27.4268
846.141,27.5122
846.323,27.3732
846.505,27.3855
846.687,27.3225
846.869,27.3804
847.051,27.3742
847.233,27.2966
847.415,27.1572
847.597,27.0659
847.778,27.1018
847.96,27.2326
848.142,27.1226
848.324,27.2677
848.506,27.4456
848.687,27.4119
848.869,27.2864
849.051,27.1421
849.232,27.3182
849.414,27.4568
849.596,27.4238
849.777,27.1501
849.959,27.1919
850.141,27.1584
850.322,27.1538
850.504,27.1038
850.685,27.0374
850.867,26.9661
851.049,27.4201
851.23,27.3618
851.412,27.4044
851.593,27.4362
851.775,27.4661
851.956,27.521
852.137,27.6235
852.319,27.6801
852.5,27.7437
852.682,27.8097
852.863,27.7808
853.044,27.7294
853.226,27.7056
853.407,27.521
853.588,27.5257
853.77,27.6298
853.951,27.6041
854.132,27.609
854.313,27.6192
854.495,27.7046
854.676,27.8796
854.857,27.8578
855.038,27.9522
855.219,28.0708
855.4,28.1307
855.582,28.1419
855.763,27.8609
855.944,28.0231
856.125,27.7714
856.306,28.2042
856.487,28.3644
856.668,28.3016
856.849,28.2419
857.03,28.1851
857.211,28.0895
857.392,27.9399
857.573,27.847
857.754,27.7064
857.935,27.6167
858.116,27.6263
858.296,27.3488
858.477,27.2711
858.658,27.2247
858.839,27.3074
859.02,27.2591
859.201,27.4759
859.381,27.5744
859.562,27.585
859.743,27.534
859.924,27.6991
860.104,27.7545
860.285,27.7633
860.466,27.912
860.646,27.8376
860.827,28.0009
861.008,28.1174
861.188,28.1604
861.369,28.1347
861.549,28.1323
861.73,28.1673
861.911,28.118
862.091,28.1083
862.272,28.321
862.452,28.5668
862.633,28.2199
862.813,28.4441
862.994,28.4934
863.174,28.3481
863.354,28.3587
863.535,28.2792
863.715,28.3705
863.896,28.4361
864.076,28.4673
864.256,28.5535
864.437,28.6036
864.617,28.7247
864.797,28.6161
864.977,28.8194
865.158,28.8156
865.338,28.7436
865.518,28.6073
865.698,28.5001
865.878,28.4429
866.059,28.484
866.239,28.5496
866.419,28.47
866.599,28.4685
866.779,28.5299
866.959,28.4327
867.139,28.4068
867.319,28.1912
867.499,28.4573
867.679,28.657
867.859,28.6226
868.039,28.2831
868.219,28.4198
868.399,28.2097
868.579,28.2389
868.759,28.2383
868.939,28.2303
869.119,28.1814
869.299,28.1788
869.479,28.2393
869.659,28.1871
869.838,28.1078
870.018,28.1523
870.198,28.3858
870.378,28.2914
870.557,28.3744
870.737,28.3601
870.917,28.3426
871.097,28.4011
871.276,28.399
871.456,28.4918
871.636,28.4176
871.815,28.6725
871.995,28.7426
872.175,28.7677
872.354,28.667
872.534,28.7722
872.713,28.7192
872.893,28.7603
873.072,28.6369
873.252,28.567
873.431,28.5829
873.611,28.707
873.79,28.8881
873.97,28.6945
874.149,28.8861
874.328,28.8119
874.508,28.6008
874.687,28.6776
874.867,28.6772
875.046,28.9327
875.225,29.0526
875.405,29.1646
875.584,29.0422
875.763,29.0648
875.942,28.9327
876.122,29.0369
876.301,29.2321
876.48,29.1787
876.659,29.1826
876.838,28.9554
877.018,28.9417
877.197,29.0619
877.376,29.0617
877.555,29.0206
877.734,28.969
877.913,28.8606
878.092,28.9749
878.271,29.0591
878.45,28.9348
878.629,28.9236
878.808,28.7697
878.987,28.8659
879.166,28.9554
879.345,28.8857
879.524,28.9545
879.703,29.0507
879.882,28.9521
880.061,29.1037
880.24,29.1828
880.418,29.4073
880.597,29.4672
880.776,29.6172
880.955,31.0541
881.134,31.0463
881.312,30.9214
881.491,30.8674
881.67,30.6565
881.848,30.6661
882.027,30.6035
882.206,30.6223
882.385,30.5837
882.563,30.586
882.742,30.6282
882.92,30.6047
883.099,30.5181
883.278,30.7101
883.456,30.8717
883.635,31.0115
883.813,30.9192
883.992,30.9815
884.17,30.9395
884.349,31.0806
884.527,30.9726
884.706,30.8199
884.884,30.837
885.062,30.963
885.241,30.9334
885.419,30.8299
885.597,30.5697
885.776,30.4739
885.954,30.4912
886.132,30.5253
886.311,30.7592
886.489,30.9689
886.667,30.943
886.845,31.006
887.024,31.1191
887.202,30.8874
887.38,30.7592
887.558,30.6628
887.736,30.5754
887.915,30.4992
888.093,30.3347
888.271,30.3429
888.449,30.4643
888.627,30.4152
888.805,30.4399
888.983,30.2846
889.161,30.2569
889.339,30.3757
889.517,30.3828
889.695,30.6106
889.873,30.631
890.051,30.5842
890.229,30.5966
890.407,30.6153
890.585,30.4994
890.763,30.4417
890.94,30.3618
891.118,30.404
891.296,30.0918
891.474,30.2282
891.652,30.402
891.829,30.5842
892.007,30.498
892.185,30.856
892.363,30.5293
892.54,30.4707
892.718,30.5819
892.896,30.5359
893.073,30.653
893.251,30.6267
893.429,30.8093
893.606,30.8819
893.784,30.8674
893.961,30.7938
894.139,30.8676
894.316,30.9946
894.494,31.072
894.671,31.0944
894.849,31.0276
895.026,31.1517
895.204,30.9349
895.381,30.9122
895.559,31.0139
895.736,31.1733
895.913,32.2747
896.091,32.0721
896.268,32.1484
896.446,32.2861
896.623,32.3809
896.8,32.2723
896.977,32.3258
897.155,32.3281
897.332,32.3285
897.509,32.2323
897.686,32.2077
897.864,32.4253
898.041,32.3827
898.218,32.228
898.395,32.2382
898.572,32.2969
898.749,32.1357
898.926,32.2093
899.103,32.2462
899.281,32.3827
899.458,32.2828
899.635,32.2965
899.812,32.4067
899.989,32.5039
900.166,32.4931
900.343,32.3104
900.52,32.173
900.696,32.2223
900.873,32.1777
901.05,32.1371
901.227,32.2519
901.404,32.367
901.581,32.3576
901.758,32.3289
901.934,32.3448
902.111,32.3248
902.288,32.2928
902.465,32.4958
902.642,32.3833
902.818,32.627
902.995,32.7138
903.172,32.7014
903.348,32.4783
903.525,32.3631
903.702,32.3764
903.878,32.6588
904.055,32.7289
904.232,32.842
904.408,32.9523
904.585,32.9447
904.761,33.1171
904.938,32.8842
905.114,32.8414
905.291,32.7658
905.467,32.7507
905.644,32.7668
905.82,32.6107
905.997,32.3833
906.173,32.6319
906.349,32.483
906.526,32.4163
906.702,32.6203
906.878,32.4497
907.055,32.477
907.231,32.7259
907.407,32.7595
907.584,32.5449
907.76,32.4754
907.936,32.3774
908.112,32.6075
908.288,32.5406
908.465,32.4563
908.641,32.443
908.817,32.2945
908.993,32.1867
909.169,32.4312
909.345,32.3886
909.521,32.2751
909.697,32.3497
909.874,32.3303
910.05,32.2564
910.226,32.4135
910.402,32.464
910.578,32.6119
910.754,32.5508
910.929,32.5268
911.105,32.4575
911.281,32.6988
911.457,32.6682
911.633,32.7236
911.809,32.625
911.985,32.6268
912.161,32.6087
912.336,32.8528
912.512,32.9288
912.688,32.8758
912.864,32.7727
913.04,32.8813
913.215,32.7322
913.391,32.8414
913.567,33.0454
913.742,33.2345
913.918,33.2237
914.094,33.3973
914.269,33.2329
914.445,33.3614
914.621,33.5021
914.796,33.6423
914.972,33.7615
915.147,33.8338
915.323,33.7755
915.498,33.7415
915.674,33.5781
915.849,33.5925
916.025,33.4562
916.2,33.4046
916.376,33.4079
916.551,31.9319
916.726,32.1834
916.902,32.1302
917.077,32.2362
917.252,32.4504
917.428,32.314
917.603,32.1887
917.778,32.0163
917.954,32.0713
918.129,32.0725
918.304,32.1473
918.479,32.1683
918.654,32.2979
918.83,32.098
919.005,32.2064
919.18,32.0261
919.355,32.0752
919.53,32.1437
919.705,32.2246
919.88,32.1371
920.055,31.9621
920.231,31.9491
920.406,32.0273
920.581,31.9766
920.756,31.9497
920.931,32.0532
921.106,32.2052
921.28,32.2523
921.455,32.4
921.63,32.325
921.805,32.17
921.98,32.1502
922.155,32.3711
922.33,32.3373
922.505,32.2191
922.679,32.3032
922.854,32.3287
923.029,32.495
923.204,32.637
923.378,32.9105
923.553,33.1149
923.728,33.2644
923.903,33.1795
924.077,33.1817
924.252,32.9951
924.427,33.0319
924.601,32.9205
924.776,32.9241
924.95,32.8915
925.125,32.7299
925.3,32.8031
925.474,32.8919
925.649,33.0112
925.823,32.7193
925.998,32.8428
926.172,32.7717
926.346,32.7043
926.521,32.6541
926.695,32.757
926.87,32.7367
927.044,32.5757
927.218,32.6283
927.393,32.6254
927.567,32.4665
927.741,32.4208
927.916,32.3342
928.09,32.2641
928.264,32.3996
928.439,32.3801
928.613,32.3568
928.787,32.4355
928.961,32.4821
929.135,32.509
929.31,32.7542
929.484,32.6682
929.658,32.5965
929.832,32.7403
930.006,32.7053
930.18,32.7605
930.354,32.6558
930.528,32.8216
930.702,32.843
930.876,32.947
931.05,32.7819
931.224,31.6758
931.398,31.8488
931.572,31.7542
931.746,31.6134
931.92,31.4946
932.094,31.2841
932.268,31.1317
932.442,31.0802
932.615,31.1796
932.789,31.0559
932.963,31.0551
933.137,30.9571
933.311,30.79
933.484,30.8222
933.658,30.7773
933.832,30.8507
934.005,30.7902
934.179,30.5962
934.353,30.6104
934.526,30.4815
934.7,30.6068
934.874,30.6616
935.047,30.5668
935.221,30.3247
935.394,30.2367
935.568,30.3168
935.741,30.5799
935.915,30.4132
936.088,30.6296
936.262,30.6219
936.435,30.4219
936.609,31.2201
936.782,31.3874
936.956,31.4329
937.129,31.4359
937.302,31.3477
937.476,31.3298
937.649,31.2737
937.822,31.4015
937.996,31.1851
938.169,31.0659
938.342,31.1007
938.516,31.159
938.689,31.1688
938.862,31.2261
939.035,31.2214
939.208,31.1256
939.382,31.0492
939.555,30.901
939.728,31.1413
939.901,31.1588
940.074,31.624
940.247,31.6232
940.42,31.7163
940.593,31.7504
940.766,31.6703
940.939,32.0071
941.112,32.0546
941.285,32.1367
941.458,32.3269
941.631,32.5253
941.804,32.4883
941.977,32.4059
942.15,32.429
942.323,32.3014
942.496,32.2816
942.668,32.3385
942.841,32.249
943.014,32.3896
943.187,32.108
943.36,32.001
943.532,32.0395
943.705,32.0373
943.878,32.095
944.051,32.4153
944.223,32.3438
944.396,32.627
944.569,32.817
944.741,32.8383
944.914,32.7597
945.086,32.871
945.259,32.875
945.432,32.8131
945.604,32.744
945.777,32.6992
945.949,32.6421
946.122,32.8565
946.294,32.6364
946.467,32.6992
946.639,32.7348
946.811,32.7768
946.984,32.8652
947.156,33.1736
947.329,33.0189
947.501,33.0187
947.673,33.1571
947.846,33.1911
948.018,33.0403
948.19,33.2168
948.362,33.2182
948.535,33.1562
948.707,32.9704
948.879,33.0747
949.051,33.1155
949.224,33.1503
949.396,33.1921
949.568,32.9934
949.74,32.7361
949.912,32.9686
950.084,32.9323
950.256,33.0024
950.428,33.0022
950.6,33.1393
950.772,33.239
950.944,33.477
951.116,33.5184
951.288,33.5636
951.46,33.5483
951.632,33.5336
951.804,33.7796
951.976,33.7293
952.148,33.5809
952.32,33.8984
952.492,33.9978
952.664,34.0773
952.835,33.8691
953.007,34.0628
953.179,33.7637
953.351,33.7354
953.522,33.7109
953.694,33.8611
953.866,33.7926
954.038,34.1472
954.209,34.2915
954.381,34.0861
954.553,33.8523
954.724,34.0806
954.896,34.3836
955.067,34.3763
955.239,34.2939
955.411,34.2817
955.582,34.4109
955.754,34.4881
955.925,34.4824
956.097,34.4582
956.268,34.2709
956.44,34.2454
956.611,34.2418
956.782,34.2385
956.954,34.0651
957.125,34.0718
957.297,34.0877
957.468,34.0286
957.639,34.0991
957.811,34.0659
957.982,33.9915
958.153,33.7688
958.324,33.6899
958.496,33.6995
958.667,33.618
958.838,33.6345
959.009,33.6062
959.18,33.6614
959.352,33.8825
959.523,33.9261
959.694,33.9339
959.865,33.9748
960.036,33.9308
960.207,33.9337
960.378,33.8507
960.549,33.8473
960.72,33.6846
960.891,33.6494
961.062,33.8151
961.233,33.7344
961.404,33.651
961.575,33.7928
961.746,33.8061
961.917,33.6769
962.088,33.8399
962.259,33.8163
962.43,33.8727
962.6,34.0688
962.771,34.0415
962.942,34.1519
963.113,34.1937
963.283,34.1988
963.454,34.1851
963.625,34.1925
963.796,33.9663
963.966,33.9387
964.137,33.9019
964.308,33.7994
964.478,33.7488
964.649,33.7431
964.82,33.8593
964.99,33.8348
965.161,33.8837
965.331,33.9251
965.502,33.6846
965.672,33.9504
965.843,33.9243
966.013,33.756
966.184,33.7933
966.354,33.8955
966.525,33.9879
966.695,34.3685
966.865,34.4482
967.036,34.5242
967.206,34.4692
967.376,34.7047
967.547,34.6393
967.717,34.6907
967.887,34.7261
968.058,34.5978
968.228,34.5974
968.398,34.524
968.568,34.4341
968.739,34.6051
968.909,34.6139
969.079,34.665
969.249,34.5788
969.419,34.5788
969.589,34.5727
969.759,34.7455
969.929,34.8776
970.1,35.0693
970.27,34.8449
970.44,35.1522
970.61,35.0074
970.78,35.3334
970.95,35.5934
971.12,34.7626
971.289,34.5434
971.459,34.4932
971.629,34.4914
971.799,34.5489
971.969,34.6887
972.139,34.6228
972.309,34.7164
972.479,34.9703
972.648,35.1013
972.818,35.2792
972.988,35.1011
973.158,35.1777
973.327,35.1256
973.497,35.0298
973.667,34.987
973.836,34.8853
974.006,34.9293
974.176,34.8494
974.345,34.7579
974.515,34.5132
974.685,34.4531
974.854,34.2933
975.024,34.4692
975.193,34.6167
975.363,34.3577
975.532,34.3583
975.702,34.3214
975.871,34.2383
976.041,34.0196
976.21,34.1592
976.379,34.3964
976.549,34.4512
976.718,34.4437
976.888,34.4961
977.057,34.5921
977.226,34.6834
977.396,34.651
977.565,34.9014
977.734,35.0538
977.903,35.2258
978.073,35.356
978.242,35.549
978.411,35.3864
978.58,35.354
978.749,35.1414
978.919,34.9664
979.088,34.9391
979.257,34.8655
979.426,35.0112
979.595,35.0114
979.764,35.019
979.933,34.9727
980.102,34.932
980.271,34.9042
980.44,34.7614
980.609,34.8949
980.778,34.7901
980.947,34.7512
981.116,34.632
981.285,34.6399
981.454,34.3357
981.622,34.2811
981.791,34.3767
981.96,34.3461
982.129,34.36
982.298,34.3785
982.467,34.3206
982.635,34.3161
982.804,34.3062
982.973,34.5132
983.141,34.4598
983.31,34.3893
983.479,34.2923
983.648,34.2587
983.816,34.3502
983.985,34.5503
984.153,34.2947
984.322,34.3716
984.491,34.5069
984.659,34.5114
984.828,34.3439
984.996,34.3153
985.165,34.0881
985.333,34.0946
985.502,34.0459
985.67,34.1715
985.838,33.9736
986.007,33.8625
986.175,33.717
986.344,33.8485
986.512,33.5611
986.68,33.5846
986.849,33.562
987.017,33.7223
987.185,33.5322
987.353,33.7983
987.522,33.8811
987.69,33.9404
987.858,33.9956
988.026,33.9989
988.195,33.713
988.363,33.7861
988.531,33.7386
988.699,34.1024
988.867,34.0545
989.035,33.8817
989.203,33.9379
989.371,33.8201
989.539,33.8627
989.707,34.0539
989.875,33.933
990.043,33.8801
990.211,33.9451
990.379,34.1364
990.547,34.2617
990.715,34.3333
990.883,34.1882
991.051,34.2253
991.219,34.1389
991.387,34.2304
991.554,34.2287
991.722,34.2719
991.89,34.0472
992.058,33.8972
992.226,33.9249
992.393,33.8631
992.561,33.6335
992.729,33.7401
992.896,33.7128
993.064,33.7684
993.232,33.7225
993.399,33.5852
993.567,33.5931
993.735,33.7849
993.902,33.9235
994.07,33.8387
994.237,33.7967
994.405,33.8252
994.572,34.1303
994.74,34.101
994.907,34.2039
995.075,34.2575
995.242,34.2789
995.41,34.3864
995.577,34.3516
995.744,34.6842
995.912,34.8123
996.079,34.8464
996.246,35.1812
996.414,35.3752
996.581,35.1952
996.748,35.1557
996.915,35.1659
997.083,35.2859
997.25,35.4161
997.417,35.5449
997.584,35.5135
997.751,35.6415
997.919,35.5737
998.086,35.7322
998.253,35.9331
998.42,35.9574
998.587,35.9586
998.754,36.9695
998.921,37.0321
999.088,36.9956
999.255,36.8071
999.422,36.7833
999.589,36.7128
999.756,36.6596
999.923,36.7281
1000.09,36.7032
1000.26,36.6027
1000.42,36.518
1000.59,36.1599
1000.76,36.2188
1000.92,36.164
1001.09,36.1931
1001.26,36.0798
1001.42,36.2194
1001.59,36.2775
1001.76,36.3735
1001.92,36.4167
1002.09,36.4845
1002.26,36.5031
1002.43,36.7228
1002.59,36.7264
1002.76,36.597
1002.92,36.6213
1003.09,36.671
1003.26,36.7507
1003.42,36.7939
1003.59,36.6406
1003.76,36.5569
1003.92,36.3723
1004.09,36.4892
1004.26,36.3111
1004.42,36.36
1004.59,36.0813
1004.76,35.8475
1004.92,35.7764
1005.09,35.9484
1005.26,35.9674
1005.42,35.9857
1005.59,35.9345
1005.75,35.9641
1005.92,36.1082
1006.09,35.8428
1006.25,35.6753
1006.42,35.6664
1006.59,35.5488
1006.75,35.7448
1006.92,35.6998
1007.08,35.7192
1007.25,35.9015
1007.42,35.853
1007.58,36.0625
1007.75,36.0222
1007.92,35.8936
1008.08,35.9733
1008.25,35.9936
1008.41,36.2471
1008.58,36.3808
1008.75,36.4809
1008.91,36.425
1009.08,36.6146
1009.24,36.5033
1009.41,36.3859
1009.58,36.3869
1009.74,36.3902
1009.91,36.1361
1010.07,36.0796
1010.24,36.0279
1010.4,35.9969
1010.57,36.0949
1010.74,36.098
1010.9,36.0381
1011.07,36.0913
1011.23,35.796
1011.4,35.7181
1011.56,35.6401
1011.73,35.6707
1011.9,35.5284
1012.06,35.6211
1012.23,35.454
1012.39,35.4919
1012.56,35.6323
1012.72,35.5965
1012.89,35.745
1013.05,35.6821
1013.22,35.528
1013.39,35.5072
1013.55,35.581
1013.72,35.6611
1013.88,35.6572
1014.05,35.5761
1014.21,35.4551
1014.38,35.5142
1014.54,35.5627
1014.71,35.7147
1014.87,35.6452
1015.04,35.6134
1015.21,35.6006
1015.37,35.5199
1015.54,35.4455
1015.7,35.3809
1015.87,35.4013
1016.03,35.6207
1016.2,35.6385
1016.36,35.5949
1016.53,35.4349
1016.69,35.3589
1016.86,35.5182
1017.02,35.7864
1017.19,35.7903
1017.35,35.8302
1017.52,35.7526
1017.68,35.6868
1017.85,35.6028
1018.01,35.4318
1018.18,35.4198
1018.34,35.6356
1018.51,35.5708
1018.67,35.7149
1018.84,35.8184
1019,35.7562
1019.17,35.7033
1019.33,35.7275
1019.5,35.7813
1019.66,35.9498
1019.83,35.6912
1019.99,35.7944
1020.16,35.6837
1020.32,35.6205
1020.49,35.7503
1020.65,35.6866
1020.81,35.7187
1020.98,35.7854
1021.14,35.7876
1021.31,35.677
1021.47,35.6001
1021.64,35.9771
1021.8,35.7662
1021.97,35.9824
1022.13,35.7008
1022.3,35.7544
1022.46,35.6346
1022.62,35.6772
1022.79,35.7049
1022.95,35.6495
1023.12,35.4944
1023.28,35.4302
1023.45,35.5657
1023.61,35.6077
1023.78,35.4039
1023.94,35.4031
1024.1,35.1944
1024.27,35.2554
1024.43,35.0917
1024.6,35.1722
1024.76,35.2492
1024.93,35.3397
1025.09,35.271
1025.25,35.4524
1025.42,35.6635
1025.58,35.7314
1025.75,35.8084
1025.91,35.9062
1026.07,35.809
1026.24,35.9886
1026.4,35.9906
1026.57,36.0507
1026.73,36.1006
1026.9,36.037
1027.06,35.8526
1027.22,35.6389
1027.39,35.773
1027.55,35.9572
1027.72,35.9631
1027.88,35.7273
1028.04,35.9309
1028.21,35.9227
1028.37,35.7795
1028.53,35.8015
1028.7,36.0796
1028.86,39.5076
1029.03,51.3039
1029.19,21.1988
1029.35,51.9592
1029.52,46.0201
1029.68,13.0069
1029.84,30.988
1030.01,33.8142
1030.17,46.8393
1030.34,15.6283
1030.5,20.5434
1030.66,29.4316
1030.83,41.3098
1030.99,40.3677
1031.15,31.4796
1031.32,41.6784
1031.48,19.7242
1031.64,14.891
1031.81,32.6264
1031.97,17.3076
1032.13,25.1309
1032.3,24.8851
1032.46,68.0563
1032.62,42.7024
1032.79,35.7393
1032.95,35.6574
1033.11,23.2877
1033.28,58.1851
1033.44,46.9212
1033.6,31.2748
1033.77,44.7504
1033.93,27.8342
1034.09,16.898
1034.26,39.9172
1034.42,28.2438
1034.58,16.4884
1034.75,61.5847
1034.91,33.077
1035.07,55.5227
1035.24,54.8264
1035.4,14.5633
1035.56,34.8792
1035.73,24.8851
1035.89,49.133
1036.05,32.2168
1036.21,-0.837392
1036.38,32.5035
1036.54,14.1947
1036.7,12.843
1036.87,54.7854
1037.03,6.49434
1037.19,64.1651
1037.35,49.9522
1037.52,46.8803
1037.68,35.9032
1037.84,36.6814
1038.01,84.8087
1038.17,34.2238
1038.33,59.9873
1038.49,10.0578
1038.66,58.0212
1038.82,-1.5337
1038.98,44.9552
1039.15,8.09175
1039.31,34.5105
1039.47,39.3438
1039.63,15.874
1039.8,48.8054
1039.96,35.4936
1040.12,1.45633
1040.28,30.7013
1040.45,10.0168
1040.61,34.5925
1040.77,3.83198
1040.93,33.5685
1041.1,51.7954
1041.26,42.4157
1041.42,18.4135
1041.58,35.2069
1041.75,47.3308
1041.91,41.146
1042.07,40.122
1042.23,24.7622
1042.39,24.0249
1042.56,46.9622
1042.72,17.2667
1042.88,35.9441
1043.04,35.3297
1043.21,29.8412
1043.37,12.0648
1043.53,21.7312
1043.69,35.7393
1043.85,66.336
1044.02,40.122
1044.18,29.8412
1044.34,52.6556
1044.5,37.091
1044.66,10.0168
1044.83,26.032
1044.99,76.6577
EndSpectrumFile,
SpectrumFile,
Version,1.000000
Location,
Customer,
SampleInfo,
GPSData,255.000000,255.000000,36000000.000000,65535,65535
SystemTime,2010,2,9,4,47,29,650
Pipe km,0.000000
Pre-Dilution Factor,1.000000
Freeform Info,
Concentration,10.000000
CalibrationName,solid 7
CalibrationWavelength,500.000000
CalibrationType,2,0.020554,0.003632
CalibrationRSquared,0.996917
CalibrationConcentrations [ppm],3,0.000000,10.000000,10.000000
CalibrationCounts,3,0.000000,2832.664500,2656.425558
CalibrationWarnLow,0.000000
CalibrationWarnHigh,10.000000
CalibrationErrorLow,1.000000
CalibrationErrorHigh,12.000000
Spectrometer Name,USB4000
Spectrometer Serial,USB4F05920
IntegrationTime [ms],0.000000
WavelengthRange [nm],346.021578,1044.988724
IntensityRange [counts],-59.771106,4779.065530
WavelengthCount,3648
Wavelength [nm],Intensity [counts]
346.022,-59.3615
346.239,-59.3615
346.457,-59.3615
346.675,-59.7711
346.892,-53.2995
347.11,27.1856
347.328,6.54212
347.545,13.71
347.763,34.886
347.981,50.1639
348.198,17.9698
348.416,36.3196
348.634,57.3727
348.851,38.6133
349.069,15.4303
349.286,31.1177
349.504,31.1997
349.721,35.5004
349.939,23.4174
350.156,52.7443
350.374,34.9679
350.591,16.782
350.809,25.6292
351.026,29.9709
351.244,38.6952
351.461,8.83585
351.679,66.8343
351.896,53.8912
352.114,45.986
352.331,9.0816
352.548,36.8521
352.766,26.0388
352.983,37.5074
353.2,30.831
353.418,61.6325
353.635,28.9469
353.852,20.9189
354.07,24.2366
354.287,20.0997
354.504,24.3185
354.721,30.7491
354.939,34.1897
355.156,49.4675
355.373,56.3078
355.59,33.6982
355.808,44.8391
356.025,31.5683
356.242,42.7912
356.459,62.2059
356.676,42.955
356.893,43.3236
357.11,31.9369
357.328,38.4904
357.545,25.1377
357.762,17.3964
357.979,23.0488
358.196,30.0118
358.413,24.1547
358.63,37.0159
358.847,25.5473
359.064,49.3856
359.281,73.0192
359.498,8.46721
359.715,35.0908
359.932,45.6174
360.149,30.913
360.366,27.0218
360.583,36.6063
360.8,39.5144
361.016,64.8273
361.233,68.3498
361.45,45.5354
361.667,28.1687
361.884,19.9358
362.101,34.1487
362.318,47.5425
362.534,73.0192
362.751,32.5513
362.968,30.2576
363.185,42.8731
363.401,34.4764
363.618,36.1558
363.835,9.85983
364.052,41.8081
364.268,40.907
364.485,20.4274
364.702,18.9938
364.918,4.2484
365.135,32.1008
365.352,49.058
365.568,31.8141
365.785,11.662
366.002,50
366.218,52.6214
366.435,-2.34606
366.651,62.6565
366.868,46.0679
367.084,19.731
367.301,89.7306
367.517,41.8081
367.734,35.1615
367.95,35.6571
368.167,36.1372
368.383,36.6499
368.6,37.1748
368.816,37.7348
369.033,37.8027
369.249,38.0032
369.466,38.1412
369.682,38.1903
369.898,38.1391
370.115,38.2145
370.331,38.3453
370.547,38.2644
370.764,38.3839
370.98,38.4212
371.196,38.6857
371.413,38.7107
371.629,38.9999
371.845,39.0588
372.061,39.0989
372.278,39.285
372.494,39.5839
372.71,39.706
372.926,40.041
373.143,40.2236
373.359,40.6334
373.575,40.6287
373.791,40.6024
374.007,40.5851
374.223,40.9258
374.439,41.293
374.656,41.5569
374.872,41.9037
375.088,42.2255
375.304,42.3712
375.52,42.6938
375.736,43.2006
375.952,43.657
376.168,44.4403
376.384,44.9445
376.6,45.2526
376.816,45.5277
377.032,45.7955
377.248,46.1712
377.464,46.7473
377.68,47.3167
377.896,47.8771
378.112,48.5823
378.327,49.0895
378.543,49.7873
378.759,50.4247
378.975,51.1717
379.191,51.7778
379.407,52.7029
379.623,53.699
379.838,54.648
380.054,55.6773
380.27,56.7257
380.486,57.7874
380.701,58.9461
380.917,59.9201
381.133,61.056
381.349,62.6118
381.564,64.0032
381.78,65.2277
381.996,66.7296
382.211,68.6636
382.427,70.1852
382.643,71.8607
382.858,73.7491
383.074,75.6602
383.289,77.5153
383.505,79.6269
383.721,82.1169
383.936,84.4165
384.152,86.6534
384.367,88.8271
384.583,91.5618
384.798,94.2869
385.014,97.2219
385.229,100.132
385.445,103.175
385.66,106.508
385.876,109.85
386.091,113.287
386.307,117.166
386.522,120.938
386.737,124.959
386.953,128.998
387.168,133.344
387.384,137.638
387.599,142.38
387.814,146.753
388.03,151.532
388.245,156.752
388.46,161.818
388.675,167.316
388.891,173.014
389.106,178.396
389.321,184.087
389.536,189.954
389.752,196.101
389.967,202.407
390.182,208.834
390.397,215.298
390.612,222.274
390.828,229.133
391.043,236.233
391.258,243.524
391.473,251.126
391.688,258.619
391.903,266.716
392.118,274.653
392.333,282.759
392.548,290.919
392.763,299.026
392.978,307.437
393.194,316.281
393.409,325.328
393.624,334.527
393.838,343.543
394.053,353.301
394.268,363.149
394.483,372.748
394.698,382.783
394.913,392.958
395.128,403.093
395.343,413.451
395.558,423.819
395.773,434.732
395.988,445.778
396.202,457.1
396.417,468.264
396.632,479.807
396.847,491.339
397.062,503.233
397.276,515.094
397.491,527.219
397.706,539.208
397.921,551.636
398.135,564.166
398.35,577.282
398.565,590.571
398.78,603.677
398.994,616.963
399.209,630.587
399.424,644.197
399.638,658.296
399.853,672.28
400.067,686.48
400.282,701.357
400.497,716.35
400.711,731.313
400.926,746.742
401.14,762.368
401.355,778.142
401.569,793.995
401.784,810.09
401.998,826.565
402.213,843.001
402.427,859.898
402.642,876.948
402.856,894.426
403.071,912.828
403.285,930.656
403.499,948.773
403.714,967.406
403.928,986.195
404.143,1005.04
404.357,1024.51
404.571,1044.25
404.786,1064.05
405,1083.74
405.214,1104.15
405.429,1124.32
405.643,1145.29
405.857,1165.86
406.071,1187.22
406.286,1208.65
406.5,1230.57
406.714,1252.57
406.928,1275.02
407.142,1297.78
407.357,1320.21
407.571,1343.04
407.785,1365.77
407.999,1389.4
408.213,1413.54
408.427,1437.06
408.641,1461.06
408.856,1485.26
409.07,1509.74
409.284,1534.51
409.498,1559.28
409.712,1584.13
409.926,1609.43
410.14,1634.59
410.354,1660.06
410.568,1685.97
410.782,1711.49
410.996,1737.54
411.21,1763.5
411.424,1789.85
411.638,1815.81
411.851,1841.94
412.065,1867.86
412.279,1894.46
412.493,1920.83
412.707,1947.03
412.921,1973.76
413.135,2000.9
413.348,2027.55
413.562,2054.04
413.776,2080.7
413.99,2107.01
414.204,2134.17
414.417,2160.87
414.631,2187.96
414.845,2214.28
415.059,2241.55
415.272,2268.59
415.486,2294.84
415.7,2321.21
415.913,2348.05
416.127,2374.15
416.341,2400.01
416.554,2426.14
416.768,2452.53
416.981,2478.42
417.195,2505.06
417.409,2530.72
417.622,2556.25
417.836,2582.18
418.049,2608.09
418.263,2633.45
418.476,2659.22
418.69,2684.67
418.903,2709.54
419.117,2734.77
419.33,2759.32
419.544,2783.97
419.757,2809.26
419.97,2833.7
420.184,2858.37
420.397,2882.76
420.611,2907.14
420.824,2931.44
421.037,2955.91
421.251,2979.92
421.464,3003.89
421.677,3027.29
421.891,3050.6
422.104,3073.9
422.317,3097.54
422.53,3120.25
422.744,3143
422.957,3165.82
423.17,3188.32
423.383,3210.91
423.597,3233.22
423.81,3255.52
424.023,3277.69
424.236,3299.37
424.449,3321.15
424.662,3342.93
424.876,3364.48
425.089,3385.95
425.302,3406.81
425.515,3427.73
425.728,3448.49
425.941,3468.64
426.154,3488.8
426.367,3509.41
426.58,3529.63
426.793,3549.45
427.006,3569.47
427.219,3589.77
427.432,3609.69
427.645,3629.25
427.858,3648.71
428.071,3667.47
428.284,3686.75
428.497,3705.47
428.71,3724.29
428.922,3743
429.135,3761.59
429.348,3779.9
429.561,3798.46
429.774,3816.97
429.987,3834.87
430.199,3852.24
430.412,3870.21
430.625,3887.45
430.838,3904.98
431.05,3922.51
431.263,3939.64
431.476,3956.05
431.689,3972.36
431.901,3988.54
432.114,4004.96
432.327,4021.43
432.539,4037.63
432.752,4053.85
432.965,4070.39
433.177,4086.46
433.39,4102.16
433.602,4117.74
433.815,4133.43
434.028,4148.49
434.24,4163.24
434.453,4178.62
434.665,4193.48
434.878,4208.31
435.09,4222.86
435.303,4236.95
435.515,4251.21
435.728,4265.7
435.94,4280.2
436.152,4294.05
436.365,4308.12
436.577,4321.89
436.79,4335.67
437.002,4348.61
437.214,4361.69
437.427,4374.63
437.639,4387.75
437.851,4400.84
438.064,4413.84
438.276,4426.76
438.488,4439.12
438.701,4450.94
438.913,4462.85
439.125,4474.03
439.337,4486.62
439.55,4498.56
439.762,4510
439.974,4520.91
440.186,4532
440.398,4542.82
440.611,4553.6
440.823,4564.06
441.035,4574.7
441.247,4583.91
441.459,4593.37
441.671,4603.17
441.883,4612.26
442.095,4621.49
442.307,4630.52
442.519,4639.64
442.731,4648.36
442.944,4656.66
443.156,4664.6
443.368,4673.11
443.579,4681.14
443.791,4688.27
444.003,4695.82
444.215,4702.26
444.427,4708.91
444.639,4715.43
444.851,4721.91
445.063,4728.17
445.275,4733.77
445.487,4738.85
445.699,4743.57
445.91,4748.18
446.122,4752.45
446.334,4756.1
446.546,4759.51
446.758,4763.16
446.969,4765.97
447.181,4768.28
447.393,4770.3
447.605,4772.36
447.816,4774.29
448.028,4775.33
448.24,4776.58
448.451,4777.24
448.663,4778.24
448.875,4778.77
449.086,4779.07
449.298,4778.2
449.51,4777.74
449.721,4777.03
449.933,4776.02
450.144,4774.56
450.356,4773.08
450.567,4771.37
450.779,4769.12
450.99,4766.93
451.202,4764.48
451.413,4761.61
451.625,4758.85
451.836,4755.14
452.048,4750.84
452.259,4745.89
452.471,4741.79
452.682,4737.36
452.894,4732.81
453.105,4727.56
453.316,4722.56
453.528,4717.18
453.739,4712.37
453.95,4706.93
454.162,4700.72
454.373,4695.27
454.584,4689.59
454.796,4683.89
455.007,4678.37
455.218,4671.88
455.429,4665.68
455.641,4658.71
455.852,4651.69
456.063,4645.21
456.274,4638.87
456.485,4632.29
456.697,4625.54
456.908,4618.62
457.119,4612.2
457.33,4604.85
457.541,4598.15
457.752,4590.86
457.963,4583.77
458.174,4577.39
458.385,4570.85
458.596,4564.16
458.807,4557.3
459.018,4551.11
459.229,4544.89
459.44,4538.07
459.651,4532.68
459.862,4525.58
460.073,4519.5
460.284,4513.51
460.495,4507.76
460.706,4501.57
460.917,4495.98
461.128,4489.92
461.339,4483.8
461.55,4478.07
461.76,4472.1
461.971,4466.83
462.182,4461.78
462.393,4456.06
462.604,4451.15
462.815,4445.92
463.025,4440.77
463.236,4435.46
463.447,4430.18
463.658,4424.74
463.868,4419.6
464.079,4414.38
464.29,4409.73
464.5,4405.5
464.711,4401.13
464.922,4396.21
465.132,4392.25
465.343,4387.81
465.553,4383.39
465.764,4379.42
465.975,4375.12
466.185,4370.8
466.396,4366.75
466.606,4362.45
466.817,4359.09
467.027,4354.96
467.238,4350.84
467.448,4346.93
467.659,4343.04
467.869,4339.4
468.08,4335.83
468.29,4332.3
468.501,4329.23
468.711,4325.48
468.921,4321.64
469.132,4318.05
469.342,4314.4
469.553,4310.87
469.763,4306.62
469.973,4302.84
470.184,4298.71
470.394,4294.7
470.604,4291.2
470.814,4286.86
471.025,4283.41
471.235,4279.43
471.445,4275.34
471.655,4271.18
471.866,4266.93
472.076,4262.73
472.286,4258.28
472.496,4254
472.706,4249.96
472.916,4244.95
473.127,4240.59
473.337,4235.88
473.547,4230.69
473.757,4225.62
473.967,4221.23
474.177,4216.4
474.387,4211.52
474.597,4206.48
474.807,4200.91
475.017,4195.4
475.227,4189.78
475.437,4183.37
475.647,4177.36
475.857,4171.33
476.067,4165.04
476.277,4158.64
476.487,4152.41
476.697,4146.86
476.907,4139.59
477.117,4132.73
477.326,4125.36
477.536,4118.24
477.746,4111.41
477.956,4104.11
478.166,4096.49
478.376,4088.5
478.585,4080.81
478.795,4072.64
479.005,4064.33
479.215,4056.05
479.424,4047.93
479.634,4039.55
479.844,4031.35
480.053,4022.43
480.263,4013.4
480.473,4004.2
480.682,3994.9
480.892,3985.89
481.102,3976.9
481.311,3967.6
481.521,3958.26
481.73,3947.86
481.94,3937.83
482.15,3927.9
482.359,3918.18
482.569,3908.26
482.778,3898.25
482.988,3887.9
483.197,3877.63
483.407,3866.93
483.616,3856.87
483.826,3846.23
484.035,3835.79
484.244,3825.48
484.454,3814.86
484.663,3804.08
484.873,3792.63
485.082,3781.19
485.291,3769.8
485.501,3758.44
485.71,3746.37
485.919,3734.55
486.129,3723.11
486.338,3711.27
486.547,3700.09
486.756,3688.38
486.966,3676.44
487.175,3664.07
487.384,3651.63
487.593,3639.7
487.803,3627.81
488.012,3615.66
488.221,3602.93
488.43,3590.62
488.639,3578.64
488.848,3566.29
489.057,3553.78
489.267,3541.7
489.476,3529.67
489.685,3517.62
489.894,3505.11
490.103,3493.02
490.312,3481
490.521,3468.71
490.73,3456.32
490.939,3443.65
491.148,3431.08
491.357,3418.45
491.566,3405.95
491.775,3393.31
491.984,3380.05
492.193,3366.86
492.401,3354.29
492.61,3341.4
492.819,3328.65
493.028,3315.77
493.237,3302.16
493.446,3288.89
493.655,3276.08
493.863,3262.43
494.072,3249.45
494.281,3236.79
494.49,3224.63
494.699,3211.25
494.907,3197.8
495.116,3184.59
495.325,3171.82
495.533,3158.39
495.742,3145.46
495.951,3131.72
496.159,3118.42
496.368,3105.45
496.577,3092.26
496.785,3078.9
496.994,3065.54
497.202,3051.68
497.411,3038.69
497.62,3025.42
497.828,3012.5
498.037,2999.05
498.245,2985.56
498.454,2972.07
498.662,2958.56
498.871,2945.57
499.079,2931.88
499.288,2917.66
499.496,2904.28
499.705,2890.5
499.913,2876.61
500.121,2862.67
500.33,2849.11
500.538,2835.17
500.746,2821
500.955,2807.27
501.163,2793.29
501.371,2779.2
501.58,2765.44
501.788,2750.67
501.996,2736.9
502.205,2722.72
502.413,2708.41
502.621,2693.6
502.829,2678.95
503.038,2664.38
503.246,2649.71
503.454,2635.43
503.662,2621.14
503.87,2606.72
504.078,2592.04
504.287,2577.09
504.495,2562.26
504.703,2547.7
504.911,2532.9
505.119,2518.12
505.327,2503.47
505.535,2488.62
505.743,2473.82
505.951,2459.02
506.159,2444.3
506.367,2429.79
506.575,2414.79
506.783,2399.7
506.991,2385.05
507.199,2369.88
507.407,2355.23
507.615,2340.36
507.823,2325.39
508.031,2310.53
508.238,2296
508.446,2280.95
508.654,2266.37
508.862,2250.81
509.07,2235.96
509.278,2220.96
509.485,2206.04
509.693,2190.88
509.901,2175.97
510.109,2161
510.316,2146.03
510.524,2130.67
510.732,2115.87
510.94,2100.93
511.147,2086
511.355,2070.96
511.563,2056.01
511.77,2041.76
511.978,2026.89
512.185,2012.31
512.393,1997.82
512.601,1983.07
512.808,1968.72
513.016,1953.85
513.223,1939.23
513.431,1924.66
513.638,1910.15
513.846,1895.68
514.053,1880.93
514.261,1866.07
514.468,1851.59
514.676,1837.33
514.883,1823.31
515.091,1808.93
515.298,1794.75
515.505,1780.64
515.713,1766.53
515.92,1752.32
516.128,1738.22
516.335,1724.26
516.542,1710.16
516.75,1696.51
516.957,1682.65
517.164,1668.6
517.371,1655.07
517.579,1641.19
517.786,1627.66
517.993,1614.04
518.2,1600.64
518.408,1587.72
518.615,1573.78
518.822,1560.69
519.029,1547.58
519.236,1534.76
519.443,1521.68
519.65,1508.86
519.858,1496.09
520.065,1483.52
520.272,1471.09
520.479,1458.59
520.686,1446.18
520.893,1433.67
521.1,1421.28
521.307,1409.1
521.514,1396.95
521.721,1384.73
521.928,1372.59
522.135,1360.53
522.342,1348.9
522.549,1337.17
522.756,1325.52
522.963,1314.1
523.17,1302.7
523.376,1291.4
523.583,1280.11
523.79,1269.36
523.997,1258.26
524.204,1247.16
524.411,1236.23
524.617,1225.41
524.824,1214.7
525.031,1203.83
525.238,1193.17
525.444,1182.77
525.651,1172.35
525.858,1162.01
526.065,1151.8
526.271,1141.62
526.478,1131.45
526.685,1121.5
526.891,1111.74
527.098,1102.1
527.304,1092.51
527.511,1083.13
527.718,1073.62
527.924,1064.25
528.131,1055.05
528.337,1045.69
528.544,1036.48
528.75,1027.47
528.957,1018.58
529.163,1009.87
529.37,1000.91
529.576,992.067
529.783,983.525
529.989,974.943
530.196,966.435
530.402,957.944
530.608,949.584
530.815,941.112
531.021,932.774
531.228,924.419
531.434,916.17
531.64,908.017
531.847,900.03
532.053,891.826
532.259,884.095
532.465,876.203
532.672,869.37
532.878,861.573
533.084,853.703
533.29,846.359
533.497,838.74
533.703,831.373
533.909,824.095
534.115,816.901
534.321,809.737
534.527,802.657
534.734,795.237
534.94,788.02
535.146,781.297
535.352,774.131
535.558,767.473
535.764,760.887
535.97,754.126
536.176,747.593
536.382,741.064
536.588,734.631
536.794,728.073
537,721.508
537.206,714.983
537.412,708.747
537.618,702.469
537.824,696.258
538.03,690.128
538.235,683.875
538.441,677.723
538.647,671.8
538.853,665.715
539.059,659.663
539.265,653.783
539.471,647.994
539.676,642.12
539.882,636.23
540.088,630.424
540.294,624.726
540.499,618.949
540.705,613.276
540.911,608.094
541.116,602.604
541.322,597.38
541.528,592.219
541.733,586.932
541.939,581.114
542.145,575.862
542.35,570.581
542.556,565.555
542.762,560.517
542.967,555.151
543.173,549.982
543.378,545.042
543.584,539.949
543.789,535.088
543.995,530.235
544.2,525.522
544.406,520.837
544.611,516.119
544.817,511.534
545.022,506.793
545.227,502.098
545.433,497.623
545.638,492.956
545.844,488.508
546.049,484.171
546.254,479.431
546.46,475.166
546.665,470.871
546.87,466.422
547.076,462.309
547.281,458.238
547.486,454.176
547.691,450.2
547.897,445.762
548.102,441.54
548.307,437.466
548.512,433.358
548.717,429.543
548.923,425.502
549.128,421.715
549.333,417.726
549.538,413.96
549.743,409.973
549.948,406.323
550.153,402.445
550.358,398.863
550.563,395.114
550.768,391.34
550.974,387.711
551.179,384.347
551.384,380.461
551.589,377.027
551.793,373.472
551.998,370.237
552.203,366.912
552.408,363.547
552.613,360.245
552.818,357.033
553.023,353.795
553.228,350.107
553.433,346.755
553.638,343.573
553.842,340.227
554.047,336.991
554.252,333.818
554.457,330.743
554.662,327.908
554.866,324.82
555.071,321.946
555.276,318.898
555.481,316.038
555.685,313.241
555.89,310.516
556.095,307.543
556.299,304.653
556.504,301.9
556.709,298.951
556.913,296.146
557.118,293.459
557.322,290.871
557.527,288.235
557.732,285.537
557.936,282.751
558.141,280.003
558.345,277.613
558.55,275.027
558.754,272.488
558.959,270.154
559.163,267.785
559.368,265.422
559.572,262.772
559.777,260.078
559.981,257.68
560.185,255.323
560.39,252.99
560.594,250.595
560.798,248.482
561.003,246.216
561.207,244.272
561.411,242.026
561.616,239.857
561.82,237.676
562.024,235.297
562.229,233.151
562.433,231.052
562.637,229.192
562.841,226.921
563.046,224.872
563.25,223.153
563.454,221.199
563.658,219.05
563.862,217.262
564.066,215.284
564.27,213.287
564.475,211.368
564.679,209.668
564.883,207.992
565.087,205.608
565.291,203.954
565.495,202.223
565.699,200.336
565.903,198.246
566.107,196.297
566.311,194.566
566.515,192.852
566.719,191.351
566.923,189.712
567.127,188.017
567.331,186.291
567.534,184.426
567.738,183.06
567.942,181.47
568.146,180.171
568.35,178.427
568.554,176.697
568.758,175.052
568.961,173.608
569.165,172.035
569.369,170.205
569.573,168.814
569.776,167.222
569.98,165.634
570.184,163.967
570.388,162.505
570.591,160.909
570.795,159.351
570.999,157.818
571.202,156.44
571.406,155.025
571.609,153.764
571.813,152.485
572.017,151.362
572.22,150.218
572.424,149.265
572.627,147.857
572.831,146.702
573.034,145.222
573.238,144.365
573.441,143.19
573.645,141.87
573.848,139.791
574.052,138.38
574.255,137.278
574.459,136.001
574.662,134.952
574.865,133.993
575.069,132.97
575.272,131.852
575.475,130.698
575.679,129.583
575.882,128.598
576.085,127.665
576.289,126.473
576.492,125.315
576.695,124.042
576.899,122.959
577.102,122.063
577.305,120.891
577.508,120.146
577.711,119.252
577.915,118.266
578.118,117.425
578.321,116.579
578.524,115.386
578.727,114.277
578.93,113.323
579.133,112.48
579.336,111.422
579.539,110.454
579.743,110.209
579.946,109.191
580.149,108.323
580.352,107.426
580.555,106.41
580.758,105.89
580.961,105.295
581.163,104.407
581.366,103.758
581.569,102.916
581.772,102.075
581.975,101.076
582.178,100.199
582.381,99.418
582.584,98.5713
582.787,97.7185
582.989,97.1799
583.192,96.5806
583.395,95.9742
583.598,95.3317
583.801,94.6679
584.003,93.9456
584.206,93.2207
584.409,92.4659
584.612,91.8833
584.814,91.2392
585.017,90.6201
585.22,89.8423
585.422,89.1058
585.625,88.638
585.827,87.9408
586.03,87.4958
586.233,87.0872
586.435,86.2866
586.638,85.7078
586.84,85.0429
587.043,84.4367
587.245,84.0161
587.448,83.4068
587.65,82.8668
587.853,82.2658
588.055,81.6097
588.258,80.9694
588.46,80.2158
588.663,79.5835
588.865,79.1401
589.068,78.7079
589.27,78.2962
589.472,77.7607
589.675,77.1076
589.877,76.6896
590.079,76.2383
590.282,75.5666
590.484,75.0649
590.686,74.4454
590.889,73.8003
591.091,73.4324
591.293,72.911
591.495,72.3465
591.697,72.1148
591.9,71.7201
592.102,71.2852
592.304,71.0794
592.506,70.679
592.708,70.2142
592.91,69.8315
593.113,69.5493
593.315,69.2894
593.517,69.0046
593.719,68.5509
593.921,68.0914
594.123,67.7195
594.325,67.5274
594.527,67.0813
594.729,66.8046
594.931,66.5384
595.133,66.2813
595.335,65.8165
595.537,65.1917
595.739,64.7853
595.941,64.2366
596.143,64.6089
596.344,64.2443
596.546,64.1004
596.748,63.6277
596.95,63.2419
597.152,62.9112
597.354,62.4712
597.556,62.5305
597.757,62.0586
597.959,61.7014
598.161,61.2789
598.363,61.0122
598.564,60.7267
598.766,60.6116
598.968,60.4887
599.169,60.1924
599.371,59.8822
599.573,59.6037
599.774,59.2774
599.976,58.943
600.178,58.6561
600.379,58.5324
600.581,58.199
600.782,57.93
600.984,57.7259
601.185,57.5883
601.387,57.43
601.589,57.2761
601.79,56.9637
601.992,56.4865
602.193,56.2607
602.394,55.973
602.596,55.7384
602.797,55.6573
602.999,55.7099
603.2,55.6587
603.402,55.1401
603.603,54.9926
603.804,54.9924
604.006,54.7525
604.207,54.5816
604.408,54.3466
604.61,53.9765
604.811,53.6179
605.012,53.388
605.213,53.0742
605.415,52.7492
605.616,52.4378
605.817,52.2611
606.018,51.95
606.219,51.6975
606.421,51.5355
606.622,51.4786
606.823,51.5049
607.024,51.3898
607.225,51.2771
607.426,51.0825
607.627,51.0609
607.828,50.8457
608.029,50.6562
608.23,50.5533
608.432,50.3585
608.633,50.2062
608.834,50.0196
609.035,50.0579
609.235,49.9472
609.436,49.6171
609.637,49.4647
609.838,49.4048
610.039,49.297
610.24,49.0262
610.441,49.1073
610.642,49.0506
610.843,49.1197
611.044,48.8843
611.244,48.7776
611.445,48.7884
611.646,48.6777
611.847,48.3887
612.048,48.3737
612.248,48.2995
612.449,48.3386
612.65,48.1222
612.85,47.9199
613.051,47.8011
613.252,47.9084
613.453,47.616
613.653,47.6115
613.854,47.2794
614.054,47.0006
614.255,47.0249
614.456,46.8087
614.656,46.8278
614.857,46.7059
615.057,46.5955
615.258,46.4097
615.458,46.2424
615.659,46.1853
615.859,46.1303
616.06,46.1875
616.26,46.1028
616.461,46.1303
616.661,45.8878
616.862,45.9391
617.062,45.9834
617.263,46.1046
617.463,45.9224
617.663,45.6911
617.864,45.5729
618.064,45.4344
618.264,45.2508
618.465,45.3885
618.665,45.5102
618.865,45.6816
619.065,45.952
619.266,45.8853
619.466,45.9308
619.666,45.7072
619.866,45.5805
620.067,45.8136
620.267,44.9427
620.467,44.8279
620.667,44.7391
620.867,44.8314
621.067,45.0335
621.267,44.8192
621.467,44.5314
621.668,44.4738
621.868,44.3264
622.068,44.6121
622.268,44.661
622.468,44.5909
622.668,44.83
622.868,44.6667
623.068,44.5818
623.268,44.5125
623.468,44.3207
623.667,44.11
623.867,44.0497
624.067,44.0903
624.267,43.9403
624.467,44.1361
624.667,44.2286
624.867,44.225
625.067,44.3101
625.266,44.1687
625.466,43.977
625.666,44.0405
625.866,44.2292
626.066,44.0475
626.265,43.9696
626.465,43.9594
626.665,43.7864
626.864,43.8783
627.064,43.8958
627.264,44.1284
627.463,43.999
627.663,44.2247
627.863,44.3138
628.062,44.3847
628.262,44.6735
628.461,44.7908
628.661,44.7513
628.861,44.8359
629.06,44.8357
629.26,44.7913
629.459,44.7766
629.659,44.8
629.858,44.9046
630.058,44.9787
630.257,44.7745
630.457,44.8522
630.656,44.9683
630.855,44.9647
631.055,45.0664
631.254,45.1925
631.453,45.2858
631.653,45.1951
631.852,45.3011
632.052,45.2402
632.251,45.2834
632.45,45.2051
632.649,45.2636
632.849,45.2383
633.048,45.2404
633.247,45.3488
633.446,45.4552
633.646,45.5391
633.845,45.5978
634.044,45.9495
634.243,45.9175
634.442,45.9948
634.641,46.0636
634.84,46.2079
635.04,46.2173
635.239,46.5338
635.438,46.46
635.637,46.7078
635.836,46.7457
636.035,46.8213
636.234,46.9264
636.433,46.3669
636.632,46.3394
636.831,46.3872
637.03,46.4918
637.229,46.398
637.428,46.4553
637.627,46.535
637.825,46.3383
638.024,46.656
638.223,46.8614
638.422,46.9562
638.621,47.0302
638.82,47.1885
639.019,47.1241
639.217,47.0316
639.416,47.0996
639.615,47.4188
639.814,47.4067
640.012,47.4446
640.211,47.5329
640.41,47.5414
640.609,47.6456
640.807,47.896
641.006,47.9859
641.205,48.1734
641.403,48.2235
641.602,48.2952
641.8,48.1803
641.999,48.2875
642.198,48.3435
642.396,48.5098
642.595,48.5232
642.793,48.7672
642.992,48.9043
643.19,48.7833
643.389,48.9228
643.587,49.1281
643.786,49.3915
643.984,49.4857
644.183,49.5006
644.381,49.708
644.579,49.8134
644.778,50.0175
644.976,50.32
645.174,50.4104
645.373,50.634
645.571,50.9229
645.769,51.1601
645.968,51.2993
646.166,51.4684
646.364,51.6584
646.563,51.7213
646.761,51.7319
646.959,51.716
647.157,51.8864
647.355,51.9396
647.554,51.8393
647.752,51.6739
647.95,51.7507
648.148,51.7603
648.346,51.9074
648.544,51.9506
648.742,52.0427
648.94,51.9251
649.139,52.0144
649.337,52.0855
649.535,52.3814
649.733,52.4998
649.931,52.5925
650.129,52.607
650.327,52.7934
650.525,53.0243
650.723,53.0308
650.92,52.9436
651.118,53.2046
651.316,53.2682
651.514,53.3114
651.712,53.4076
651.91,53.6377
652.108,53.7149
652.306,53.9723
652.503,53.8632
652.701,54.0951
652.899,54.2394
653.097,54.053
653.294,53.9606
653.492,54.0426
653.69,54.1775
653.888,54.1677
654.085,54.2066
654.283,54.2671
654.481,54.3794
654.678,54.3083
654.876,54.5538
655.074,54.7864
655.271,55.0657
655.469,55.2006
655.666,55.3618
655.864,55.2793
656.062,55.0653
656.259,55.0755
656.457,55.1434
656.654,55.2438
656.852,55.0684
657.049,55.2326
657.246,55.0859
657.444,55.0588
657.641,55.2736
657.839,55.4154
658.036,55.4226
658.234,55.6437
658.431,55.6492
658.628,55.5811
658.826,55.3761
659.023,55.2917
659.22,55.7443
659.418,55.6333
659.615,55.9842
659.812,56.2399
660.009,56.0867
660.207,56.3559
660.404,56.5327
660.601,56.6226
660.798,56.6866
660.995,56.415
661.193,56.7302
661.39,57.119
661.587,57.4495
661.784,57.5215
661.981,57.5327
662.178,57.6448
662.375,57.7004
662.572,57.8553
662.769,58.2948
662.966,58.4026
663.163,58.5169
663.36,58.8766
663.557,59.318
663.754,59.6768
663.951,59.5945
664.148,59.6948
664.345,59.8816
664.542,59.9426
664.739,60.1757
664.936,60.18
665.133,60.5178
665.33,60.7872
665.526,60.809
665.723,60.9021
665.92,61.0167
666.117,61.1173
666.314,61.3272
666.51,61.5656
666.707,61.6812
666.904,61.8314
667.101,61.7672
667.297,62.1262
667.494,62.1495
667.691,62.2332
667.887,62.4541
668.084,62.4003
668.281,62.6053
668.477,62.9163
668.674,63.3646
668.87,63.6279
669.067,63.9266
669.264,64.1469
669.46,64.3276
669.657,64.6258
669.853,64.9901
670.05,65.6159
670.246,65.5858
670.443,66.0638
670.639,66.4182
670.836,66.8922
671.032,67.182
671.228,67.5905
671.425,68.1324
671.621,68.6247
671.817,69.2907
672.014,69.7292
672.21,70.2128
672.406,70.6299
672.603,71.0925
672.799,71.7503
672.995,71.8882
673.192,72.2475
673.388,72.6956
673.584,73.1105
673.78,73.4373
673.977,73.8867
674.173,74.4153
674.369,74.7872
674.565,75.2137
674.761,75.7559
674.957,76.2715
675.153,77.0469
675.349,77.3917
675.546,78.2212
675.742,79.0783
675.938,79.7803
676.134,80.5011
676.33,81.3604
676.526,81.9361
676.722,82.828
676.918,83.5977
677.114,84.4397
677.31,85.1051
677.506,86.1592
677.701,87.0369
677.897,87.927
678.093,88.8442
678.289,89.6501
678.485,90.441
678.681,91.2296
678.877,92.2846
679.072,93.0968
679.268,93.731
679.464,94.5532
679.66,95.4401
679.856,96.1543
680.051,97.2164
680.247,98.1962
680.443,99.0482
680.638,100.078
680.834,100.748
681.03,101.635
681.225,102.563
681.421,103.577
681.617,104.56
681.812,105.454
682.008,106.341
682.203,107.202
682.399,107.955
682.595,108.888
682.79,110.096
682.986,110.957
683.181,111.946
683.377,112.978
683.572,113.875
683.767,114.965
683.963,115.825
684.158,116.803
684.354,117.673
684.549,118.673
684.745,119.683
684.94,120.727
685.135,121.58
685.331,122.471
685.526,123.395
685.721,124.566
685.916,125.516
686.112,126.595
686.307,127.794
686.502,128.818
686.697,129.737
686.893,130.975
687.088,132.281
687.283,133.514
687.478,134.686
687.673,135.713
687.869,136.663
688.064,137.5
688.259,138.575
688.454,139.753
688.649,140.717
688.844,141.937
689.039,142.81
689.234,143.922
689.429,144.87
689.624,145.954
689.819,147.106
690.014,147.818
690.209,149.002
690.404,149.976
690.599,151.093
690.794,152.266
690.989,153.428
691.184,154.592
691.378,155.618
691.573,156.894
691.768,157.835
691.963,159.116
692.158,160.133
692.353,161.251
692.547,162.334
692.742,163.624
692.937,164.782
693.132,165.948
693.326,167.174
693.521,168.432
693.716,169.558
693.91,170.701
694.105,172.005
694.3,173.062
694.494,174.234
694.689,175.315
694.883,176.412
695.078,177.332
695.273,178.55
695.467,179.785
695.662,181.076
695.856,182.243
696.051,183.615
696.245,184.915
696.44,186.021
696.634,187.276
696.829,188.378
697.023,189.502
697.217,190.706
697.412,191.838
697.606,192.818
697.801,193.879
697.995,194.789
698.189,195.87
698.384,196.931
698.578,197.819
698.772,198.946
698.967,199.739
699.161,200.763
699.355,201.796
699.549,202.79
699.744,203.771
699.938,204.68
700.132,205.549
700.326,206.582
700.52,207.521
700.714,208.259
700.909,208.983
701.103,209.895
701.297,210.657
701.491,211.659
701.685,212.554
701.879,212.997
702.073,213.7
702.267,214.603
702.461,215.623
702.655,216.393
702.849,216.905
703.043,217.509
703.237,218.433
703.431,219.097
703.625,219.826
703.819,220.437
704.013,221.022
704.206,221.644
704.4,222.415
704.594,223.116
704.788,223.709
704.982,224.106
705.176,224.804
705.369,225.533
705.563,226.121
705.757,226.751
705.951,227.352
706.144,228.1
706.338,228.813
706.532,229.375
706.725,229.941
706.919,230.296
707.113,230.788
707.306,231.535
707.5,231.962
707.693,232.487
707.887,232.878
708.081,233.488
708.274,233.927
708.468,234.378
708.661,234.963
708.855,235.513
709.048,235.856
709.242,236.114
709.435,236.678
709.629,237.115
709.822,237.467
710.015,237.533
710.209,237.864
710.402,237.891
710.596,238.035
710.789,238.127
710.982,238.204
711.176,238.554
711.369,238.647
711.562,238.713
711.756,238.846
711.949,239.024
712.142,239.135
712.335,239.25
712.529,239.156
712.722,239.045
712.915,238.962
713.108,238.839
713.301,238.737
713.494,238.801
713.688,238.82
713.881,238.663
714.074,238.404
714.267,238.034
714.46,238.034
714.653,237.611
714.846,237.156
715.039,237.029
715.232,236.636
715.425,236.116
715.618,235.839
715.811,235.408
716.004,234.976
716.197,234.56
716.39,234.463
716.583,233.721
716.775,233.276
716.968,232.583
717.161,231.983
717.354,231.495
717.547,230.935
717.74,230.631
717.932,230.015
718.125,229.342
718.318,228.977
718.511,228.668
718.703,228.078
718.896,227.551
719.089,226.791
719.282,225.98
719.474,225.301
719.667,224.526
719.86,223.898
720.052,223.283
720.245,222.576
720.437,221.905
720.63,221.389
720.823,220.85
721.015,220.078
721.208,219.407
721.4,218.565
721.593,217.594
721.785,216.633
721.978,215.742
722.17,214.762
722.362,213.686
722.555,213.065
722.747,212.018
722.94,211.136
723.132,210.283
723.324,209.383
723.517,208.547
723.709,207.563
723.901,206.782
724.094,205.84
724.286,204.874
724.478,204.005
724.671,202.968
724.863,202.162
725.055,201.192
725.247,200.218
725.439,199.162
725.632,198.415
725.824,197.282
726.016,196.118
726.208,195.093
726.4,193.964
726.592,192.898
726.784,192.153
726.976,191.261
727.169,190.264
727.361,188.987
727.553,187.998
727.745,186.883
727.937,185.979
728.129,184.776
728.321,183.752
728.512,182.729
728.704,181.72
728.896,180.823
729.088,179.582
729.28,178.555
729.472,177.388
729.664,176.189
729.856,174.972
730.048,173.768
730.239,172.641
730.431,171.202
730.623,170.085
730.815,168.957
731.006,167.925
731.198,166.831
731.39,165.669
731.582,164.429
731.773,163.332
731.965,162.069
732.157,160.766
732.348,159.707
732.54,158.524
732.732,157.542
732.923,156.396
733.115,155.207
733.306,153.88
733.498,152.699
733.689,151.494
733.881,150.378
734.072,149.201
734.264,147.98
734.455,146.815
734.647,145.476
734.838,144.219
735.03,142.945
735.221,141.931
735.412,140.834
735.604,139.925
735.795,138.912
735.987,137.672
736.178,136.494
736.369,135.56
736.561,134.446
736.752,133.526
736.943,132.341
737.134,131.128
737.326,129.809
737.517,128.686
737.708,127.635
737.899,126.484
738.09,125.397
738.282,124.268
738.473,123.152
738.664,122.119
738.855,121.186
739.046,120.072
739.237,118.797
739.428,117.847
739.619,116.873
739.81,115.946
740.001,114.757
740.192,113.657
740.383,112.83
740.574,111.923
740.765,110.847
740.956,109.7
741.147,108.846
741.338,107.785
741.529,106.934
741.72,105.744
741.911,104.68
742.102,104.091
742.292,103.062
742.483,102.128
742.674,101.332
742.865,100.603
743.056,99.5603
743.246,98.9414
743.437,98.2709
743.628,97.4328
743.819,96.5829
744.009,95.9212
744.2,94.9995
744.391,94.3584
744.581,93.4997
744.772,92.6088
744.963,91.7309
745.153,90.7966
745.344,89.933
745.534,89.5358
745.725,88.6137
745.916,87.6507
746.106,86.9034
746.297,86.1439
746.487,85.229
746.678,84.4328
746.868,83.7149
747.058,83.0125
747.249,82.1711
747.439,81.1367
747.63,80.4477
747.82,79.8239
748.011,79.1714
748.201,78.088
748.391,77.2839
748.582,76.8296
748.772,76.0722
748.962,75.6917
749.152,75.1642
749.343,74.6955
749.533,73.9849
749.723,73.0932
749.913,72.5766
750.104,71.9445
750.294,71.4161
750.484,70.72
750.674,70.3061
750.864,69.7145
751.054,69.2436
751.245,68.6746
751.435,68.1462
751.625,67.8713
751.815,67.4177
752.005,66.8062
752.195,66.2529
752.385,65.9622
752.575,65.3639
752.765,65.0262
752.955,64.5035
753.145,64.1693
753.335,63.7159
753.525,63.2056
753.715,62.7064
753.904,62.4749
754.094,61.9589
754.284,61.4415
754.474,61.0764
754.664,60.5692
754.854,60.0471
755.044,59.818
755.233,59.4417
755.423,59.1034
755.613,58.6522
755.803,58.2809
755.992,57.95
756.182,57.6545
756.372,57.3843
756.561,57.3167
756.751,56.9961
756.941,56.4196
757.13,56.0221
757.32,55.6889
757.51,55.3376
757.699,55.2125
757.889,54.8632
758.078,54.4526
758.268,54.1086
758.457,53.8789
758.647,53.5268
758.836,53.1431
759.026,52.7001
759.215,52.3532
759.405,52.0484
759.594,51.8884
759.784,51.8092
759.973,51.6987
760.162,51.5098
760.352,51.4069
760.541,51.272
760.73,50.9934
760.92,50.4206
761.109,50.3236
761.298,50.0487
761.488,50.0033
761.677,49.8853
761.866,49.5401
762.055,49.3424
762.244,49.1755
762.434,48.9982
762.623,48.8322
762.812,48.6306
763.001,48.3274
763.19,48.1711
763.379,48.0468
763.568,47.929
763.758,48.0295
763.947,47.7682
764.136,47.6093
764.325,47.4571
764.514,47.2602
764.703,47.0401
764.892,47.085
765.081,46.7885
765.27,46.6581
765.459,46.4443
765.648,46.7086
765.836,46.4223
766.025,46.1951
766.214,46.07
766.403,45.8813
766.592,45.7539
766.781,45.6563
766.97,45.4052
767.158,45.3156
767.347,45.1917
767.536,45.1927
767.725,44.8658
767.913,44.7927
768.102,44.7566
768.291,44.831
768.48,44.7576
768.668,44.8903
768.857,44.7566
769.046,44.6608
769.234,44.5846
769.423,44.3623
769.611,44.4772
769.8,44.2987
769.989,44.2574
770.177,44.3036
770.366,44.2494
770.554,43.873
770.743,43.6566
770.931,43.3984
771.12,43.3864
771.308,43.3581
771.496,43.3102
771.685,43.2405
771.873,43.1517
772.062,43.1117
772.25,43.0946
772.438,43.0606
772.627,42.8806
772.815,42.9055
773.003,42.7037
773.192,42.7977
773.38,42.6999
773.568,42.5998
773.757,42.5364
773.945,42.2889
774.133,42.3331
774.321,42.2053
774.509,41.928
774.698,41.6626
774.886,41.3725
775.074,41.4456
775.262,41.3183
775.45,41.5104
775.638,41.4232
775.826,41.2194
776.014,41.1838
776.202,41.0821
776.39,41.0244
776.578,40.8865
776.766,40.9653
776.954,40.8744
777.142,40.8697
777.33,40.8934
777.518,40.9979
777.706,40.9955
777.894,40.9282
778.082,41.1151
778.27,41.0295
778.458,40.7344
778.646,40.7713
778.833,40.6831
779.021,40.7929
779.209,40.5188
779.397,40.422
779.585,40.2761
779.772,40.2215
779.96,40.0821
780.148,39.9556
780.335,39.967
780.523,40.0051
780.711,40.0693
780.898,39.967
781.086,40.1514
781.274,39.7632
781.461,39.6872
781.649,39.8272
781.836,39.7889
782.024,39.7361
782.212,39.6691
782.399,39.4417
782.587,39.5423
782.774,39.4378
782.962,39.439
783.149,39.4313
783.336,39.5841
783.524,39.2336
783.711,39.4233
783.899,39.4093
784.086,39.5482
784.273,39.4887
784.461,39.4343
784.648,39.213
784.836,39.038
785.023,38.975
785.21,39.5256
785.397,39.535
785.585,39.47
785.772,39.4288
785.959,39.2945
786.146,39.4855
786.334,39.471
786.521,39.4786
786.708,39.5052
786.895,39.2876
787.082,39.3239
787.269,39.1975
787.456,39.1649
787.643,39.2662
787.83,38.9972
788.018,39.0932
788.205,39.0382
788.392,38.9436
788.579,38.95
788.766,38.9345
788.953,38.9068
789.14,38.8996
789.326,38.9779
789.513,38.7242
789.7,38.651
789.887,38.7071
790.074,38.9522
790.261,38.811
790.448,38.9498
790.635,38.8878
790.821,38.9518
791.008,38.9656
791.195,39.1099
791.382,39.0889
791.569,39.4543
791.755,39.3013
791.942,39.5855
792.129,39.558
792.315,39.5529
792.502,39.576
792.689,39.5682
792.875,39.5036
793.062,39.4836
793.249,39.632
793.435,39.6956
793.622,39.7145
793.808,39.8223
793.995,39.8011
794.181,39.5853
794.368,39.4502
794.554,39.4288
794.741,39.5503
794.927,39.5715
795.114,39.6787
795.3,39.902
795.487,39.7235
795.673,39.867
795.859,39.9794
796.046,40.2287
796.232,40.1718
796.418,40.3945
796.605,40.5168
796.791,40.4194
796.977,40.486
797.164,40.5637
797.35,40.4836
797.536,40.321
797.722,40.3179
797.909,40.2242
798.095,40.1897
798.281,40.1816
798.467,40.4597
798.653,40.6988
798.839,40.7287
799.025,40.9667
799.212,40.9841
799.398,40.9771
799.584,41.4362
799.77,41.5746
799.956,41.4026
800.142,41.6282
800.328,41.7662
800.514,42.0478
800.7,42.0535
800.886,41.9718
801.072,42.1075
801.258,42.4853
801.443,42.5599
801.629,43.0039
801.815,43.106
802.001,43.269
802.187,43.4673
802.373,43.7563
802.559,43.5617
802.744,43.6703
802.93,43.6961
803.116,43.7872
803.302,44.0562
803.487,44.5826
803.673,44.8972
803.859,44.9649
804.045,45.0492
804.23,45.3467
804.416,45.4747
804.601,45.5593
804.787,45.7429
804.973,46.0569
805.158,46.137
805.344,46.5215
805.529,46.8855
805.715,46.9497
805.9,47.1204
806.086,47.2429
806.271,47.1918
806.457,47.5251
806.642,47.6865
806.828,47.8443
807.013,47.9647
807.199,48.0507
807.384,48.2475
807.569,48.4982
807.755,48.6767
807.94,49.0119
808.125,49.3339
808.311,49.7274
808.496,50.1965
808.681,50.1936
808.867,50.4795
809.052,50.6519
809.237,50.7809
809.422,51.0521
809.608,51.2781
809.793,51.4825
809.978,51.7507
810.163,51.9648
810.348,52.1666
810.533,52.5835
810.718,52.8315
810.903,52.9263
811.089,52.9713
811.274,53.1537
811.459,53.4516
811.644,53.5064
811.829,53.8033
812.014,54.1907
812.199,54.6525
812.384,54.928
812.569,55.2392
812.754,55.5825
812.938,55.9202
813.123,56.1484
813.308,56.4869
813.493,56.7086
813.678,57.1335
813.863,57.3915
814.048,57.6973
814.232,57.7585
814.417,58.132
814.602,58.519
814.787,58.6932
814.971,58.6624
815.156,58.857
815.341,58.8542
815.526,58.9699
815.71,59.1931
815.895,59.6681
816.079,60.0261
816.264,60.3795
816.449,60.5612
816.633,60.9386
816.818,61.2213
817.002,61.3435
817.187,61.7841
817.371,62.2491
817.556,62.6469
817.741,62.8223
817.925,63.0887
818.109,63.0575
818.294,63.2169
818.478,63.2923
818.663,63.4909
818.847,63.6289
819.032,64.0656
819.216,64.1732
819.4,64.3374
819.585,64.5009
819.769,64.7101
819.953,64.9109
820.137,65.1697
820.322,65.4221
820.506,65.889
820.69,65.9752
820.874,66.3823
821.059,66.6962
821.243,67.0306
821.427,67.1634
821.611,67.6912
821.795,68.0018
821.979,68.3669
822.164,68.6753
822.348,68.9114
822.532,68.5367
822.716,68.7309
822.9,68.9642
823.084,69.0734
823.268,69.1853
823.452,69.4148
823.636,69.6198
823.82,69.6905
824.004,70.0273
824.188,70.2814
824.372,70.3837
824.555,70.6158
824.739,71.0764
824.923,71.4336
825.107,71.9108
825.291,72.0989
825.475,72.3702
825.658,72.6673
825.842,72.7545
826.026,73.2197
826.21,73.3929
826.394,73.637
826.577,73.8806
826.761,74.3073
826.945,74.5934
827.128,74.768
827.312,74.7707
827.496,75.0892
827.679,75.2035
827.863,75.4234
828.046,75.6921
828.23,75.965
828.414,76.0689
828.597,76.1885
828.781,76.1967
828.964,76.5992
829.148,76.8048
829.331,77.1579
829.515,77.3813
829.698,77.6183
829.881,77.9113
830.065,78.1754
830.248,78.2449
830.432,78.4085
830.615,78.6424
830.798,79.0427
830.982,79.1415
831.165,79.1873
831.348,79.5219
831.532,79.9391
831.715,80.0493
831.898,80.4742
832.081,80.8777
832.265,81.0737
832.448,81.1838
832.631,81.5803
832.814,81.8246
832.997,82.0382
833.18,82.1132
833.363,82.5061
833.547,82.7235
833.73,82.9611
833.913,83.1928
834.096,83.3744
834.279,83.6564
834.462,83.8506
834.645,84.3531
834.828,84.6245
835.011,84.8283
835.194,85.1173
835.377,85.3425
835.56,85.403
835.743,85.5862
835.925,85.9485
836.108,86.1847
836.291,86.4109
836.474,86.5564
836.657,86.6057
836.84,86.8569
837.022,87.1186
837.205,87.1736
837.388,87.2119
837.571,87.443
837.753,87.8084
837.936,88.1138
838.119,88.2972
838.302,88.1613
838.484,88.1566
838.667,87.9251
838.849,88.0582
839.032,88.099
839.215,88.39
839.397,88.6143
839.58,89.1193
839.762,89.2267
839.945,89.3642
840.127,89.7294
840.31,89.5144
840.492,89.6962
840.675,89.8036
840.857,89.9957
841.04,90.3081
841.222,90.3978
841.405,90.4936
841.587,90.8563
841.769,90.9133
841.952,91.0054
842.134,91.2569
842.316,91.4059
842.499,91.5149
842.681,91.6718
842.863,91.6732
843.045,91.8797
843.228,92.06
843.41,91.9966
843.592,92.157
843.774,92.2564
843.957,92.4327
844.139,92.4072
844.321,92.6255
844.503,92.5313
844.685,92.5978
844.867,92.5531
845.049,92.6852
845.231,92.7757
845.413,92.6893
845.595,92.9069
845.777,93.0874
845.959,93.2935
846.141,93.493
846.323,93.5201
846.505,93.6582
846.687,93.7363
846.869,93.9093
847.051,94.0566
847.233,94.118
847.415,94.015
847.597,94.0558
847.778,94.2592
847.96,94.5031
848.142,94.3931
848.324,94.4707
848.506,94.7792
848.687,94.7515
848.869,94.6983
849.051,94.6645
849.232,94.7927
849.414,94.8583
849.596,94.9365
849.777,94.7014
849.959,94.8049
850.141,94.8077
850.322,94.7275
850.504,94.6468
850.685,94.7427
850.867,94.6745
851.049,95.1631
851.23,95.0763
851.412,95.0407
851.593,95.0394
851.775,95.2118
851.956,95.2768
852.137,95.4221
852.319,95.4596
852.5,95.5324
852.682,95.5758
852.863,95.5619
853.044,95.6748
853.226,95.697
853.407,95.6006
853.588,95.5689
853.77,95.5784
853.951,95.6151
854.132,95.4527
854.313,95.4331
854.495,95.5252
854.676,95.6553
854.857,95.7806
855.038,95.8698
855.219,95.978
855.4,96.032
855.582,96.0251
855.763,95.6683
855.944,95.7942
856.125,95.6681
856.306,96.0799
856.487,96.1936
856.668,96.1881
856.849,96.0999
857.03,95.9407
857.211,95.8264
857.392,95.6204
857.573,95.425
857.754,95.2487
857.935,95.091
858.116,94.9657
858.296,94.5243
858.477,94.3933
858.658,94.3427
858.839,94.3183
859.02,94.1658
859.201,94.3527
859.381,94.4611
859.562,94.4147
859.743,94.2946
859.924,94.3912
860.104,94.4244
860.285,94.369
860.466,94.3533
860.646,94.0884
860.827,94.1605
861.008,94.1406
861.188,94.0966
861.369,93.925
861.549,93.9132
861.73,93.8396
861.911,93.5777
862.091,93.5264
862.272,93.486
862.452,93.5777
862.633,93.2429
862.813,93.3654
862.994,93.3458
863.174,93.1302
863.354,93.044
863.535,92.8543
863.715,92.7916
863.896,92.7524
864.076,92.6613
864.256,92.5917
864.437,92.4861
864.617,92.3763
864.797,92.1713
864.977,92.1281
865.158,91.9791
865.338,91.8012
865.518,91.4642
865.698,91.1518
865.878,90.9256
866.059,90.7475
866.239,90.6462
866.419,90.3646
866.599,90.0986
866.779,90.056
866.959,89.7659
867.139,89.5922
867.319,89.1289
867.499,89.1672
867.679,89.2128
867.859,88.9071
868.039,88.3461
868.219,88.272
868.399,87.9027
868.579,87.7733
868.759,87.6431
868.939,87.335
869.119,87.117
869.299,87.0067
869.479,86.8335
869.659,86.6444
869.838,86.3889
870.018,86.1985
870.198,86.2156
870.378,85.9194
870.557,85.8466
870.737,85.5795
870.917,85.2347
871.097,85.0694
871.276,84.927
871.456,84.7118
871.636,84.3806
871.815,84.4263
871.995,84.3859
872.175,84.1377
872.354,83.7002
872.534,83.5987
872.713,83.2568
872.893,83.2022
873.072,82.8983
873.252,82.5185
873.431,82.2073
873.611,82.0319
873.79,81.9775
873.97,81.4898
874.149,81.3818
874.328,81.098
874.508,80.776
874.687,80.5885
874.867,80.4579
875.046,80.5233
875.225,80.3996
875.405,80.3071
875.584,80.0236
875.763,79.6882
875.942,79.2674
876.122,79.1001
876.301,79.0041
876.48,78.7066
876.659,78.3971
876.838,77.9798
877.018,77.6162
877.197,77.4387
877.376,77.2091
877.555,76.8844
877.734,76.5111
877.913,76.1268
878.092,75.8366
878.271,75.5668
878.45,75.133
878.629,74.8689
878.808,74.3861
878.987,74.3684
879.166,74.2247
879.345,73.9231
879.524,73.7601
879.703,73.6309
879.882,73.2707
880.061,73.1144
880.24,72.9676
880.418,72.9587
880.597,72.6701
880.776,72.643
880.955,73.8897
881.134,73.6939
881.312,73.2986
881.491,72.9764
881.67,72.569
881.848,72.2984
882.027,71.8931
882.206,71.6435
882.385,71.2924
882.563,71.025
882.742,70.8188
882.92,70.5286
883.099,70.0695
883.278,69.861
883.456,69.709
883.635,69.5444
883.813,69.2393
883.992,69.0661
884.17,68.7883
884.349,68.7046
884.527,68.4376
884.706,68.0486
884.884,67.8687
885.062,67.7226
885.241,67.4599
885.419,67.1223
885.597,66.7542
885.776,66.4677
885.954,66.2238
886.132,66.007
886.311,66.0814
886.489,66.1629
886.667,65.8821
886.845,65.6139
887.024,65.5579
887.202,65.0482
887.38,64.7128
887.558,64.3941
887.736,64.1583
887.915,63.7779
888.093,63.3697
888.271,63.1366
888.449,63.0253
888.627,62.8079
888.805,62.63
888.983,62.2381
889.161,61.9661
889.339,61.8913
889.517,61.7309
889.695,61.78
889.873,61.705
890.051,61.3653
890.229,61.2264
890.407,61.0097
890.585,60.6391
890.763,60.4732
890.94,60.162
891.118,59.9782
891.296,59.4647
891.474,59.4162
891.652,59.3828
891.829,59.4382
892.007,59.1148
892.185,59.2407
892.363,58.7743
892.54,58.5395
892.718,58.4012
892.896,58.1656
893.073,58.1945
893.251,57.9533
893.429,57.9802
893.606,57.8453
893.784,57.7208
893.961,57.6138
894.139,57.592
894.316,57.5844
894.494,57.4628
894.671,57.247
894.849,57.0791
895.026,57.0742
895.204,56.6585
895.381,56.4023
895.559,56.4117
895.736,56.3968
895.913,57.3507
896.091,57.0026
896.268,56.9006
896.446,56.9819
896.623,57.0884
896.8,56.8525
896.977,56.8093
897.155,56.6666
897.332,56.502
897.509,56.2513
897.686,56.0587
897.864,56.1765
898.041,55.9909
898.218,55.8279
898.395,55.7317
898.572,55.5244
898.749,55.1711
898.926,55.0731
899.103,55.0046
899.281,55.0176
899.458,54.8192
899.635,54.6584
899.812,54.6231
899.989,54.647
900.166,54.5518
900.343,54.4
900.52,54.1748
900.696,53.999
900.873,53.8806
901.05,53.7442
901.227,53.6815
901.404,53.7534
901.581,53.5865
901.758,53.4781
901.934,53.4376
902.111,53.2859
902.288,53.2635
902.465,53.4695
902.642,53.2275
902.818,53.3831
902.995,53.3858
903.172,53.2381
903.348,52.9222
903.525,52.7643
903.702,52.6881
903.878,52.8975
904.055,52.9458
904.232,52.8977
904.408,52.9397
904.585,52.827
904.761,52.9817
904.938,52.7467
905.114,52.5957
905.291,52.4873
905.467,52.3964
905.644,52.273
905.82,51.9145
905.997,51.5879
906.173,51.7486
906.349,51.393
906.526,51.3278
906.702,51.5453
906.878,51.2698
907.055,51.2533
907.231,51.4016
907.407,51.3278
907.584,51.0379
907.76,50.7736
907.936,50.6262
908.112,50.8398
908.288,50.6488
908.465,50.5761
908.641,50.5135
908.817,50.2682
908.993,50.0709
909.169,50.3395
909.345,50.2947
909.521,50.1557
909.697,50.2364
909.874,50.1082
910.05,49.9813
910.226,50.0607
910.402,50.0432
910.578,50.0999
910.754,49.8939
910.929,49.8788
911.105,49.74
911.281,49.8735
911.457,49.8203
911.633,49.8568
911.809,49.6907
911.985,49.7149
912.161,49.6075
912.336,49.7797
912.512,49.6899
912.688,49.6204
912.864,49.505
913.04,49.6086
913.215,49.4294
913.391,49.6106
913.567,49.7514
913.742,49.8286
913.918,49.8054
914.094,49.9352
914.269,49.7408
914.445,49.8443
914.621,49.7999
914.796,49.849
914.972,49.8415
915.147,49.9222
915.323,49.7638
915.498,49.7041
915.674,49.5387
915.849,49.4168
916.025,49.3404
916.2,49.2422
916.376,49.0677
916.551,47.4302
916.726,47.6305
916.902,47.5213
917.077,47.5565
917.252,47.6892
917.428,47.5588
917.603,47.4118
917.778,47.2036
917.954,47.216
918.129,47.1728
918.304,47.1335
918.479,47.0858
918.654,47.2669
918.83,47.0687
919.005,47.1836
919.18,47.0789
919.355,47.0096
919.53,46.9592
919.705,47.0212
919.88,46.8824
920.055,46.6191
920.231,46.5684
920.406,46.5788
920.581,46.4783
920.756,46.397
920.931,46.3905
921.106,46.5132
921.28,46.4989
921.455,46.6165
921.63,46.4946
921.805,46.3283
921.98,46.2116
922.155,46.4319
922.33,46.3993
922.505,46.3037
922.679,46.374
922.854,46.398
923.029,46.6112
923.204,46.7041
923.378,46.9971
923.553,47.2146
923.728,47.4041
923.903,47.2767
924.077,47.1814
924.252,46.8741
924.427,46.9211
924.601,46.6886
924.776,46.6385
924.95,46.5523
925.125,46.3349
925.3,46.3088
925.474,46.2951
925.649,46.3883
925.823,46.0581
925.998,46.1737
926.172,46.0027
926.346,45.9037
926.521,45.8116
926.695,45.9014
926.87,45.8057
927.044,45.6294
927.218,45.6072
927.393,45.5923
927.567,45.3571
927.741,45.2771
927.916,45.1729
928.09,45.1354
928.264,45.243
928.439,45.1409
928.613,45.0983
928.787,45.1169
928.961,45.1069
929.135,44.9981
929.31,45.1069
929.484,44.9461
929.658,44.843
929.832,44.9504
930.006,44.9262
930.18,44.8993
930.354,44.7536
930.528,44.9009
930.702,44.9003
930.876,44.9096
931.05,44.7609
931.224,43.6593
931.398,43.7642
931.572,43.6764
931.746,43.4983
931.92,43.2774
932.094,42.9699
932.268,42.8346
932.442,42.6905
932.615,42.7247
932.789,42.5358
932.963,42.4564
933.137,42.2785
933.311,42.1089
933.484,42.1087
933.658,42.0225
933.832,42.0786
934.005,42.0366
934.179,41.8799
934.353,41.8764
934.526,41.6999
934.7,41.7941
934.874,41.7721
935.047,41.5767
935.221,41.2641
935.394,41.2019
935.568,41.1208
935.741,41.3113
935.915,41.196
936.088,41.412
936.262,41.3882
936.435,41.2251
936.609,41.9013
936.782,42.0433
936.956,42.0777
937.129,42.08
937.302,42.015
937.476,41.8827
937.649,41.7272
937.822,41.854
937.996,41.4996
938.169,41.3101
938.342,41.3311
938.516,41.3957
938.689,41.2932
938.862,41.348
939.035,41.2484
939.208,41.0046
939.382,40.84
939.555,40.656
939.728,40.8316
939.901,40.831
940.074,41.2416
940.247,41.185
940.42,41.306
940.593,41.2384
940.766,41.1715
940.939,41.4599
941.112,41.489
941.285,41.5379
941.458,41.6867
941.631,41.7666
941.804,41.7124
941.977,41.575
942.15,41.4856
942.323,41.3282
942.496,41.3317
942.668,41.3374
942.841,41.2614
943.014,41.4181
943.187,41.1157
943.36,40.874
943.532,40.8589
943.705,40.7986
943.878,40.8204
944.051,41.1976
944.223,41.0943
944.396,41.2123
944.569,41.3794
944.741,41.3087
944.914,41.218
945.086,41.2977
945.259,41.226
945.432,41.1224
945.604,40.9561
945.777,40.9472
945.949,40.7656
946.122,40.9166
946.294,40.6258
946.467,40.627
946.639,40.5667
946.811,40.5818
946.984,40.6028
947.156,40.8247
947.329,40.6713
947.501,40.6513
947.673,40.741
947.846,40.7687
948.018,40.5097
948.19,40.6136
948.362,40.5582
948.535,40.5103
948.707,40.3124
948.879,40.3764
949.051,40.4324
949.224,40.4516
949.396,40.4047
949.568,40.1946
949.74,39.9758
949.912,40.1836
950.084,40.1013
950.256,40.1498
950.428,40.1306
950.6,40.1877
950.772,40.2768
950.944,40.3672
951.116,40.4062
951.288,40.5087
951.46,40.4889
951.632,40.41
951.804,40.6835
951.976,40.6185
952.148,40.4608
952.32,40.6372
952.492,40.669
952.664,40.6817
952.835,40.4803
953.007,40.6034
953.179,40.3016
953.351,40.2633
953.522,40.1604
953.694,40.2753
953.866,40.1622
954.038,40.3874
954.209,40.5252
954.381,40.3028
954.553,40.0308
954.724,40.2152
954.896,40.5117
955.067,40.5025
955.239,40.4398
955.411,40.476
955.582,40.5663
955.754,40.7151
955.925,40.6287
956.097,40.5443
956.268,40.3793
956.44,40.4045
956.611,40.3177
956.782,40.2439
956.954,40.0404
957.125,39.9354
957.297,39.9226
957.468,39.8146
957.639,39.8515
957.811,39.7846
957.982,39.6884
958.153,39.3675
958.324,39.274
958.496,39.1415
958.667,39.073
958.838,39.0553
959.009,38.9889
959.18,38.9879
959.352,39.2224
959.523,39.2314
959.694,39.1621
959.865,39.2332
960.036,39.2271
960.207,39.2774
960.378,39.2102
960.549,39.2485
960.72,39.0506
960.891,39.0288
961.062,39.167
961.233,39.1289
961.404,39.0506
961.575,39.1627
961.746,39.1906
961.917,39.0669
962.088,39.2291
962.259,39.1692
962.43,39.2039
962.6,39.3781
962.771,39.2367
962.942,39.287
963.113,39.3288
963.283,39.3459
963.454,39.3043
963.625,39.3326
963.796,39.0879
963.966,38.9636
964.137,38.8788
964.308,38.898
964.478,38.7865
964.649,38.7384
964.82,38.8093
964.99,38.7796
965.161,38.7413
965.331,38.7971
965.502,38.5933
965.672,38.7327
965.843,38.6396
966.013,38.491
966.184,38.5334
966.354,38.641
966.525,38.7539
966.695,39.134
966.865,39.2134
967.036,39.2784
967.206,39.2204
967.376,39.417
967.547,39.3987
967.717,39.4339
967.887,39.4307
968.058,39.2715
968.228,39.2634
968.398,39.1541
968.568,39.0127
968.739,39.0545
968.909,39.0518
969.079,38.9974
969.249,38.9944
969.419,39.0457
969.589,39.0586
969.759,39.2375
969.929,39.296
970.1,39.4942
970.27,39.3333
970.44,39.5238
970.61,39.4091
970.78,39.6723
970.95,39.8368
971.12,39.0847
971.289,38.9112
971.459,38.8737
971.629,38.8892
971.799,38.9121
971.969,39.0186
972.139,38.8627
972.309,38.9347
972.479,39.2016
972.648,39.3239
972.818,39.4362
972.988,39.2621
973.158,39.3174
973.327,39.2607
973.497,39.1955
973.667,39.1945
973.836,39.1205
974.006,39.0969
974.176,39.0117
974.345,38.8212
974.515,38.5669
974.685,38.477
974.854,38.2263
975.024,38.3533
975.193,38.4876
975.363,38.2569
975.532,38.2842
975.702,38.2541
975.871,38.2141
976.041,37.9502
976.21,38.0552
976.379,38.2227
976.549,38.2263
976.718,38.2665
976.888,38.2832
977.057,38.3616
977.226,38.4104
977.396,38.2932
977.565,38.5084
977.734,38.6806
977.903,38.8354
978.073,38.8872
978.242,38.9807
978.411,38.7452
978.58,38.6836
978.749,38.5147
978.919,38.3254
979.088,38.2726
979.257,38.2414
979.426,38.328
979.595,38.2522
979.764,38.2653
979.933,38.2088
980.102,38.1666
980.271,38.1479
980.44,37.9987
980.609,38.1016
980.778,38.0289
980.947,38.0391
981.116,37.9571
981.285,37.9826
981.454,37.7134
981.622,37.7022
981.791,37.7328
981.96,37.6961
982.129,37.6631
982.298,37.7699
982.467,37.691
982.635,37.7032
982.804,37.628
982.973,37.7277
983.141,37.6943
983.31,37.6071
983.479,37.441
983.648,37.4104
983.816,37.4942
983.985,37.6042
984.153,37.3391
984.322,37.3652
984.491,37.4349
984.659,37.4343
984.828,37.3199
984.996,37.2584
985.165,37.1345
985.333,37.1479
985.502,37.0723
985.67,37.2305
985.838,36.9725
986.007,36.7944
986.175,36.634
986.344,36.7363
986.512,36.5631
986.68,36.5806
986.849,36.6195
987.017,36.7985
987.185,36.5784
987.353,36.8949
987.522,36.9762
987.69,37.0161
987.858,37.0497
988.026,37.0452
988.195,36.8109
988.363,36.8394
988.531,36.8178
988.699,37.1064
988.867,37.0336
989.035,36.8991
989.203,36.9609
989.371,36.808
989.539,36.7838
989.707,36.9509
989.875,36.8129
990.043,36.8296
990.211,36.9107
990.379,37.1153
990.547,37.181
990.715,37.2113
990.883,37.0597
991.051,37.0497
991.219,36.9988
991.387,37.0308
991.554,36.9896
991.722,36.9482
991.89,36.6949
992.058,36.556
992.226,36.5977
992.393,36.481
992.561,36.3192
992.729,36.2943
992.896,36.2768
993.064,36.2907
993.232,36.2558
993.399,36.0744
993.567,36.0512
993.735,36.2389
993.902,36.3387
994.07,36.1975
994.237,36.1064
994.405,36.2026
994.572,36.4751
994.74,36.5081
994.907,36.5621
995.075,36.6198
995.242,36.6799
995.41,36.7084
995.577,36.623
995.744,37.0094
995.912,37.108
996.079,37.1539
996.246,37.5076
996.414,37.7069
996.581,37.4722
996.748,37.4923
996.915,37.5952
997.083,37.6696
997.25,37.7754
997.417,37.9376
997.584,37.8968
997.751,38.036
997.919,38.0175
998.086,38.1556
998.253,38.1807
998.42,38.2192
998.587,38.135
998.754,39.2055
998.921,39.2432
999.088,39.1894
999.255,39.0099
999.422,38.9793
999.589,38.9616
999.756,38.9349
999.923,38.9571
1000.09,38.8805
1000.26,38.7319
1000.42,38.5827
1000.59,38.2437
1000.76,38.2259
1000.92,38.1868
1001.09,38.2492
1001.26,38.2009
1001.42,38.2439
1001.59,38.3517
1001.76,38.3702
1001.92,38.4646
1002.09,38.4986
1002.26,38.5919
1002.43,38.8226
1002.59,38.8022
1002.76,38.618
1002.92,38.6312
1003.09,38.6359
1003.26,38.7423
1003.42,38.832
1003.59,38.726
1003.76,38.6416
1003.92,38.4303
1004.09,38.5505
1004.26,38.4283
1004.42,38.4672
1004.59,38.1805
1004.76,37.9932
1004.92,37.9366
1005.09,37.9926
1005.26,37.9557
1005.42,37.9066
1005.59,37.8813
1005.75,37.9062
1005.92,38.1646
1006.09,37.9054
1006.25,37.7601
1006.42,37.7342
1006.59,37.7114
1006.75,37.8017
1006.92,37.7332
1007.08,37.7772
1007.25,37.821
1007.42,37.743
1007.58,38.0046
1007.75,37.984
1007.92,37.7945
1008.08,37.973
1008.25,37.9875
1008.41,38.1793
1008.58,38.3213
1008.75,38.4554
1008.91,38.3908
1009.08,38.5495
1009.24,38.3616
1009.41,38.2166
1009.58,38.2873
1009.74,38.3506
1009.91,38.1397
1010.07,38.1452
1010.24,38.12
1010.4,38.0865
1010.57,38.1758
1010.74,38.221
1010.9,38.1789
1011.07,38.2577
1011.23,37.9871
1011.4,37.9288
1011.56,37.8777
1011.73,37.9604
1011.9,37.9307
1012.06,37.9953
1012.23,37.8402
1012.39,37.886
1012.56,38.0327
1012.72,37.9502
1012.89,38.08
1013.05,38.0535
1013.22,37.9553
1013.39,37.9743
1013.55,38.0191
1013.72,37.9618
1013.88,38.055
1014.05,38.0175
1014.21,37.9466
1014.38,37.9714
1014.54,37.9761
1014.71,38.0649
1014.87,37.9802
1015.04,37.8636
1015.21,37.8265
1015.37,37.8206
1015.54,37.7605
1015.7,37.6784
1015.87,37.5834
1016.03,37.8174
1016.2,37.8145
1016.36,37.8404
1016.53,37.8718
1016.69,37.7528
1016.86,37.8618
1017.02,38.1416
1017.19,38.1941
1017.35,38.1856
1017.52,38.1945
1017.68,38.1536
1017.85,38.0105
1018.01,37.8184
1018.18,37.7711
1018.34,37.9294
1018.51,37.9188
1018.67,37.9722
1018.84,38.0747
1019,38.034
1019.17,37.9765
1019.33,38.1251
1019.5,38.2571
1019.66,38.4136
1019.83,38.2168
1019.99,38.3521
1020.16,38.2428
1020.32,38.144
1020.49,38.2543
1020.65,38.2365
1020.81,38.2257
1020.98,38.2408
1021.14,38.2233
1021.31,38.1189
1021.47,38.0645
1021.64,38.2944
1021.8,38.1371
1021.97,38.358
1022.13,38.0988
1022.3,38.208
1022.46,38.0321
1022.62,37.9547
1022.79,37.9957
1022.95,37.9771
1023.12,37.7619
1023.28,37.6309
1023.45,37.7071
1023.61,37.7377
1023.78,37.5388
1023.94,37.594
1024.1,37.3935
1024.27,37.5129
1024.43,37.3778
1024.6,37.4744
1024.76,37.5482
1024.93,37.6413
1025.09,37.6531
1025.25,37.7941
1025.42,37.9335
1025.58,37.9806
1025.75,37.9792
1025.91,38.0397
1026.07,37.9787
1026.24,38.1446
1026.4,38.2255
1026.57,38.2936
1026.73,38.3125
1026.9,38.285
1027.06,38.0342
1027.22,37.8536
1027.39,38.0012
1027.55,38.2302
1027.72,38.0874
1027.88,37.8383
1028.04,37.9307
1028.21,37.9058
1028.37,37.7165
1028.53,37.6584
1028.7,37.8769
1028.86,43.979
1029.03,61.8373
1029.19,10.1875
1029.35,58.6834
1029.52,57.5365
1029.68,18.5842
1029.84,43.979
1030.01,26.6941
1030.17,33.1657
1030.34,31.9369
1030.5,31.7321
1030.66,34.6812
1030.83,36.893
1030.99,32.6332
1031.15,26.817
1031.32,44.3886
1031.48,9.36832
1031.64,22.9668
1031.81,40.5794
1031.97,18.2155
1032.13,25.0967
1032.3,14.6111
1032.46,64.5816
1032.62,46.1089
1032.79,50.2867
1032.95,48.1978
1033.11,21.5333
1033.28,58.8882
1033.44,48.5664
1033.6,44.3067
1033.77,38.3266
1033.93,40.1698
1034.09,20.2635
1034.26,22.3115
1034.42,16.2495
1034.58,15.2665
1034.75,57.8642
1034.91,36.5244
1035.07,47.1329
1035.24,60.5266
1035.4,23.0078
1035.56,41.6853
1035.73,39.0639
1035.89,53.6454
1036.05,32.3056
1036.21,5.96869
1036.38,49.5085
1036.54,10.4742
1036.7,14.0377
1036.87,62.4517
1037.03,9.57312
1037.19,69.0871
1037.35,48.6893
1037.52,41.7262
1037.68,34.927
1037.84,46.2727
1038.01,67.7354
1038.17,40.3746
1038.33,65.4007
1038.49,8.71297
1038.66,66.7524
1038.82,-0.830565
1038.98,33.0019
1039.15,11.1705
1039.31,43.1188
1039.47,32.7971
1039.63,5.60006
1039.8,53.7683
1039.96,41.4805
1040.12,12.5222
1040.28,48.1978
1040.45,8.54913
1040.61,38.7772
1040.77,9.45024
1040.93,38.9819
1041.1,57.3727
1041.26,44.3886
1041.42,27.0628
1041.58,33.903
1041.75,39.3096
1041.91,36.7292
1042.07,29.3565
1042.23,29.1107
1042.39,15.6351
1042.56,48.5255
1042.72,22.803
1042.88,35.5414
1043.04,29.2746
1043.21,36.7292
1043.37,3.51113
1043.53,32.6742
1043.69,41.2347
1043.85,61.4686
1044.02,29.5613
1044.18,30.6262
1044.34,44.4295
1044.5,36.1558
1044.66,11.4163
1044.83,21.9428
1044.99,66.7524
EndSpectrumFile,
SpectrumFile,CALIBRATION
Version,1.000000
Location,
Customer,
SampleInfo,
GPSData,0.000000,0.000000,0.000000,0,0
SystemTime,2010,2,15,7,49,27,478
Pipe km,0.000000
Pre-Dilution Factor,1.000000
Freeform Info,
Concentration,10.000000
CalibrationName,solid 7
CalibrationWavelength,500.000000
CalibrationType,2,0.020554,0.003632
CalibrationRSquared,0.996917
CalibrationConcentrations [ppm],3,0.000000,10.000000,10.000000
CalibrationCounts,3,0.000000,2832.664500,2656.425558
CalibrationWarnLow,0.000000
CalibrationWarnHigh,10.000000
CalibrationErrorLow,1.000000
CalibrationErrorHigh,12.000000
Spectrometer Name,USB4000
Spectrometer Serial,USB4F05920
IntegrationTime [ms],0.000000
WavelengthRange [nm],346.021578,1044.988724
IntensityRange [counts],-71.118153,4541.118994
WavelengthCount,3648
Wavelength [nm],Intensity [counts]
346.022,-67.3089
346.239,-67.3089
346.457,-67.3089
346.675,-71.1182
346.892,-59.8953
347.11,30.9526
347.328,7.48289
347.545,5.23012
347.763,29.3962
347.981,45.6161
348.198,10.35
348.416,49.0157
348.634,52.0467
348.851,36.2773
349.069,-1.69201
349.286,21.491
349.504,27.1434
349.721,21.8596
349.939,16.6168
350.156,47.1725
350.374,32.0585
350.591,6.21315
350.809,14.5689
351.026,31.7308
351.244,49.753
351.461,3.79654
351.679,67.5703
351.896,56.3884
352.114,31.567
352.331,2.03529
352.548,38.7759
352.766,28.0445
352.983,44.0187
353.2,23.1294
353.418,64.6212
353.635,18.3371
353.852,12.0703
354.07,24.9316
354.287,12.2342
354.504,10.35
354.721,28.4541
354.939,24.522
355.156,33.2054
355.373,44.633
355.59,30.1334
355.808,39.1854
356.025,28.6179
356.242,43.3633
356.459,56.6751
356.676,27.7578
356.893,44.4282
357.11,26.57
357.328,27.6759
357.545,15.5928
357.762,17.0674
357.979,31.608
358.196,31.8947
358.413,17.5179
358.63,36.1545
358.847,30.9936
359.064,40.8238
359.281,64.2935
359.498,2.28105
359.715,24.6039
359.932,13.6268
360.149,21.491
360.366,15.1833
360.583,32.3862
360.8,44.3054
361.016,46.2714
361.233,71.0109
361.45,40.4142
361.667,20.467
361.884,11.7427
362.101,37.3423
362.318,45.1655
362.534,66.3415
362.751,35.9497
362.968,30.4201
363.185,31.8537
363.401,22.3102
363.618,22.515
363.835,10.5548
364.052,35.9497
364.268,24.6858
364.485,9.44894
364.702,26.6519
364.918,4.94341
365.135,35.9906
365.352,51.3913
365.568,30.543
365.785,2.97736
366.002,39.8408
366.218,49.0976
366.435,-3.57614
366.651,60.9758
366.868,32.0176
367.084,17.2722
367.301,73.5504
367.517,38.3663
367.734,29.7627
367.95,30.3468
368.167,30.89
368.383,31.3858
368.6,31.9267
368.816,32.483
369.033,32.5337
369.249,32.6611
369.466,32.7642
369.682,32.7567
369.898,32.7004
370.115,32.7844
370.331,32.8671
370.547,32.7905
370.764,32.8838
370.98,33.0126
371.196,33.292
371.413,33.2798
371.629,33.583
371.845,33.6951
372.061,33.6851
372.278,33.8695
372.494,34.165
372.71,34.266
372.926,34.5006
373.143,34.5534
373.359,34.9079
373.575,34.8203
373.791,34.7417
374.007,34.7679
374.223,35.0606
374.439,35.3738
374.656,35.6181
374.872,35.8757
375.088,36.0892
375.304,36.1373
375.52,36.4414
375.736,36.877
375.952,37.2555
376.168,37.9616
376.384,38.4938
376.6,38.6699
376.816,38.8358
377.032,39.0151
377.248,39.3106
377.464,39.691
377.68,40.1293
377.896,40.5326
378.112,41.0492
378.327,41.3646
378.543,41.9183
378.759,42.3061
378.975,42.8734
379.191,43.3596
379.407,44.0561
379.623,44.8715
379.838,45.4991
380.054,46.2406
380.27,47.0443
380.486,47.7209
380.701,48.5464
380.917,49.2233
381.133,50.0692
381.349,51.2658
381.564,52.3733
381.78,53.3692
381.996,54.4013
382.211,55.9515
382.427,57.0745
382.643,58.2446
382.858,59.8198
383.074,61.1706
383.289,62.5574
383.505,64.316
383.721,66.3036
383.936,68.031
384.152,69.7709
384.367,71.4184
384.583,73.6333
384.798,75.7899
385.014,78.1751
385.229,80.4635
385.445,82.9841
385.66,85.5643
385.876,88.2006
386.091,91.0074
386.307,94.1686
386.522,97.284
386.737,100.59
386.953,103.852
387.168,107.469
387.384,111.089
387.599,115.217
387.814,118.939
388.03,122.975
388.245,127.419
388.46,131.684
388.675,136.57
388.891,141.37
389.106,145.998
389.321,150.905
389.536,155.996
389.752,161.393
389.967,166.914
390.182,172.542
390.397,178.214
390.612,184.462
390.828,190.593
391.043,196.853
391.258,203.418
391.473,210.187
391.688,216.918
391.903,224.229
392.118,231.352
392.333,238.778
392.548,246.276
392.763,253.632
392.978,261.417
393.194,269.547
393.409,277.877
393.624,286.305
393.838,294.546
394.053,303.463
394.268,312.5
394.483,321.388
394.698,330.644
394.913,340.057
395.128,349.566
395.343,359.13
395.558,368.741
395.773,378.976
395.988,389.171
396.202,399.804
396.417,410.044
396.632,420.853
396.847,431.693
397.062,442.79
397.276,453.916
397.491,465.302
397.706,476.548
397.921,488.102
398.135,499.799
398.35,512.053
398.565,524.487
398.78,536.828
398.994,549.35
399.209,562.02
399.424,574.891
399.638,588.107
399.853,601.295
400.067,614.738
400.282,628.663
400.497,642.824
400.711,657.048
400.926,671.603
401.14,686.285
401.355,701.16
401.569,716.145
401.784,731.349
401.998,746.935
402.213,762.532
402.427,778.422
402.642,794.586
402.856,811.092
403.071,828.468
403.285,845.217
403.499,862.374
403.714,879.999
403.928,897.905
404.143,915.726
404.357,934.082
404.571,952.752
404.786,971.419
405,990.241
405.214,1009.6
405.429,1028.7
405.643,1048.58
405.857,1068.03
406.071,1088.28
406.286,1108.64
406.5,1129.53
406.714,1150.35
406.928,1171.62
407.142,1193.4
407.357,1214.72
407.571,1236.39
407.785,1258.01
407.999,1280.33
408.213,1303.24
408.427,1325.7
408.641,1348.67
408.856,1371.62
409.07,1394.95
409.284,1418.46
409.498,1441.96
409.712,1465.53
409.926,1489.54
410.14,1513.5
410.354,1537.78
410.568,1562.31
410.782,1586.52
410.996,1611.43
411.21,1636.05
411.424,1661
411.638,1685.82
411.851,1710.48
412.065,1735.18
412.279,1760.48
412.493,1785.57
412.707,1810.62
412.921,1836.08
413.135,1861.96
413.348,1887.17
413.562,1912.3
413.776,1937.58
413.99,1962.64
414.204,1988.53
414.417,2013.89
414.631,2039.55
414.845,2064.54
415.059,2090.38
415.272,2116.14
415.486,2141
415.7,2166
415.913,2191.62
416.127,2216.56
416.341,2241.19
416.554,2266.05
416.768,2291.2
416.981,2315.77
417.195,2340.99
417.409,2365.4
417.622,2389.68
417.836,2414.41
418.049,2438.93
418.263,2463.11
418.476,2487.68
418.69,2511.98
418.903,2535.57
419.117,2559.66
419.33,2583.09
419.544,2606.54
419.757,2630.69
419.97,2653.96
420.184,2677.48
420.397,2700.77
420.611,2724.16
420.824,2747.4
421.037,2770.66
421.251,2793.59
421.464,2816.65
421.677,2839.02
421.891,2861.36
422.104,2883.55
422.317,2906.18
422.53,2928.05
422.744,2949.97
422.957,2971.93
423.17,2993.57
423.383,3015.16
423.597,3036.66
423.81,3058.14
424.023,3079.45
424.236,3100.42
424.449,3121.46
424.662,3142.42
424.876,3163.41
425.089,3184.31
425.302,3204.48
425.515,3224.73
425.728,3244.78
425.941,3264.32
426.154,3283.94
426.367,3303.88
426.58,3323.42
426.793,3342.69
427.006,3362.16
427.219,3381.83
427.432,3401.19
427.645,3420.12
427.858,3439.07
428.071,3457.5
428.284,3476.28
428.497,3494.62
428.71,3513.09
428.922,3531.36
429.135,3549.55
429.348,3567.58
429.561,3585.63
429.774,3603.83
429.987,3621.51
430.199,3638.51
430.412,3656.15
430.625,3672.91
430.838,3690.03
431.05,3707.22
431.263,3724.04
431.476,3740.17
431.689,3756.15
431.901,3772.29
432.114,3788.46
432.327,3804.55
432.539,3820.55
432.752,3836.29
432.965,3852.45
433.177,3868.17
433.39,3883.65
433.602,3899
433.815,3914.47
434.028,3929.26
434.24,3943.69
434.453,3958.83
434.665,3973.3
434.878,3987.89
435.09,4002.24
435.303,4015.85
435.515,4029.84
435.728,4043.98
435.94,4058.02
436.152,4071.46
436.365,4085.13
436.577,4098.58
436.79,4111.98
437.002,4124.64
437.214,4137.53
437.427,4150.11
437.639,4162.88
437.851,4175.77
438.064,4188.36
438.276,4201.07
438.488,4213
438.701,4224.36
438.913,4235.96
439.125,4246.7
439.337,4259
439.55,4270.66
439.762,4281.78
439.974,4292.49
440.186,4303.25
440.398,4313.72
440.611,4324.16
440.823,4334.38
441.035,4344.66
441.247,4353.7
441.459,4362.9
441.671,4372.23
441.883,4380.89
442.095,4389.94
442.307,4398.6
442.519,4407.3
442.731,4415.77
442.944,4423.74
443.156,4431.48
443.368,4439.59
443.579,4447.28
443.791,4454.06
444.003,4461.4
444.215,4467.65
444.427,4474.08
444.639,4480.3
444.851,4486.38
445.063,4492.4
445.275,4497.87
445.487,4502.64
445.699,4507.3
445.91,4511.73
446.122,4515.94
446.334,4519.48
446.546,4522.82
446.758,4526.25
446.969,4529.02
447.181,4531.21
447.393,4533.14
447.605,4535.03
447.816,4536.69
448.028,4537.72
448.24,4538.93
448.451,4539.54
448.663,4540.5
448.875,4540.95
449.086,4541.12
449.298,4540.28
449.51,4539.94
449.721,4539.4
449.933,4538.19
450.144,4536.76
450.356,4535.51
450.567,4533.78
450.779,4531.68
450.99,4529.5
451.202,4527.04
451.413,4524.17
451.625,4521.73
451.836,4518.19
452.048,4514.05
452.259,4509.43
452.471,4505.46
452.682,4501.16
452.894,4496.73
453.105,4491.54
453.316,4486.89
453.528,4481.64
453.739,4476.75
453.95,4471.51
454.162,4465.6
454.373,4460.14
454.584,4454.93
454.796,4449.33
455.007,4444.02
455.218,4437.81
455.429,4431.85
455.641,4425.1
455.852,4418.4
456.063,4412.24
456.274,4406.21
456.485,4399.89
456.697,4393.45
456.908,4386.77
457.119,4380.65
457.33,4373.77
457.541,4367.3
457.752,4360.42
457.963,4353.49
458.174,4347.45
458.385,4341.37
458.596,4334.76
458.807,4328.2
459.018,4322.37
459.229,4316.25
459.44,4309.79
459.651,4304.75
459.862,4298.08
460.073,4292.42
460.284,4286.67
460.495,4281.04
460.706,4275.29
460.917,4269.92
461.128,4264.14
461.339,4258.15
461.55,4252.88
461.76,4247.04
461.971,4241.92
462.182,4236.95
462.393,4231.32
462.604,4226.6
462.815,4221.59
463.025,4216.53
463.236,4211.39
463.447,4206.33
463.658,4201.26
463.868,4196.21
464.079,4191.09
464.29,4186.67
464.5,4182.57
464.711,4178.26
464.922,4173.5
465.132,4169.47
465.343,4164.97
465.553,4160.55
465.764,4156.66
465.975,4152.37
466.185,4148.21
466.396,4144.17
466.606,4140.03
466.817,4136.58
467.027,4132.5
467.238,4128.52
467.448,4124.46
467.659,4120.59
467.869,4116.87
468.08,4113.25
468.29,4109.87
468.501,4106.87
468.711,4103.24
468.921,4099.51
469.132,4095.93
469.342,4092.4
469.553,4088.74
469.763,4084.58
469.973,4080.87
470.184,4076.79
470.394,4072.83
470.604,4069.24
470.814,4065
471.025,4061.5
471.235,4057.57
471.445,4053.63
471.655,4049.53
471.866,4045.35
472.076,4041.08
472.286,4036.66
472.496,4032.32
472.706,4028.25
472.916,4023.27
473.127,4019.01
473.337,4014.36
473.547,4009.18
473.757,4004.23
473.967,3999.87
474.177,3995.09
474.387,3990.16
474.597,3985.04
474.807,3979.55
475.017,3974.06
475.227,3968.59
475.437,3962.26
475.647,3956.34
475.857,3950.38
476.067,3944.14
476.277,3937.8
476.487,3931.66
476.697,3926.17
476.907,3919.02
477.117,3912.41
477.326,3905.16
477.536,3898.09
477.746,3891.53
477.956,3884.38
478.166,3876.91
478.376,3869.2
478.585,3861.71
478.795,3853.71
479.005,3845.6
479.215,3837.71
479.424,3829.76
479.634,3821.51
479.844,3813.34
480.053,3804.59
480.263,3795.6
480.473,3786.6
480.682,3777.4
480.892,3768.71
481.102,3759.92
481.311,3750.96
481.521,3741.98
481.73,3731.8
481.94,3721.86
482.15,3712.18
482.359,3702.67
482.569,3692.98
482.778,3683.18
482.988,3673.1
483.197,3663.04
483.407,3652.81
483.616,3642.97
483.826,3632.58
484.035,3622.62
484.244,3612.7
484.454,3602.46
484.663,3592.05
484.873,3581.04
485.082,3569.84
485.291,3558.97
485.501,3547.94
485.71,3536.27
485.919,3524.79
486.129,3513.88
486.338,3502.42
486.547,3491.43
486.756,3480.04
486.966,3468.55
487.175,3456.77
487.384,3444.79
487.593,3433.24
487.803,3421.93
488.012,3410.12
488.221,3397.94
488.43,3386.15
488.639,3374.67
488.848,3362.83
489.057,3350.77
489.267,3339.24
489.476,3327.79
489.685,3316.12
489.894,3304.26
490.103,3292.67
490.312,3281.11
490.521,3269.23
490.73,3257.34
490.939,3245.15
491.148,3233.12
491.357,3220.99
491.566,3209.03
491.775,3196.73
491.984,3183.86
492.193,3171.41
492.401,3159.43
492.61,3146.8
492.819,3134.64
493.028,3122.2
493.237,3109.26
493.446,3096.47
493.655,3084.06
493.863,3070.8
494.072,3058.27
494.281,3046.13
494.49,3034.32
494.699,3021.54
494.907,3008.65
495.116,2995.89
495.325,2983.74
495.533,2970.83
495.742,2958.54
495.951,2945.47
496.159,2932.62
496.368,2920.18
496.577,2907.68
496.785,2894.8
496.994,2881.96
497.202,2868.65
497.411,2856.09
497.62,2843.27
497.828,2830.93
498.037,2818.03
498.245,2805.04
498.454,2792.1
498.662,2779.13
498.871,2766.62
499.079,2753.44
499.288,2739.78
499.496,2726.92
499.705,2713.8
499.913,2700.37
500.121,2687.14
500.33,2674.14
500.538,2660.7
500.746,2647.24
500.955,2634.01
501.163,2620.44
501.371,2607.19
501.58,2593.88
501.788,2579.62
501.996,2566.36
502.205,2552.66
502.413,2538.94
502.621,2524.73
502.829,2510.66
503.038,2496.62
503.246,2482.52
503.454,2468.97
503.662,2455.11
503.87,2441.28
504.078,2427.23
504.287,2412.86
504.495,2398.82
504.703,2384.85
504.911,2370.68
505.119,2356.59
505.327,2342.57
505.535,2328.33
505.743,2314.07
505.951,2299.95
506.159,2285.8
506.367,2271.82
506.575,2257.42
506.783,2243.18
506.991,2229.15
507.199,2214.81
507.407,2200.76
507.615,2186.66
507.823,2172.32
508.031,2158.32
508.238,2144.39
508.446,2130
508.654,2116.13
508.862,2101.27
509.07,2087.12
509.278,2072.73
509.485,2058.56
509.693,2044.1
509.901,2029.93
510.109,2015.67
510.316,2001.41
510.524,1986.63
510.732,1972.47
510.94,1958.15
511.147,1943.82
511.355,1929.34
511.563,1915.26
511.77,1901.68
511.978,1887.49
512.185,1873.62
512.393,1859.79
512.601,1845.75
512.808,1832.05
513.016,1817.84
513.223,1803.93
513.431,1790.02
513.638,1776.27
513.846,1762.44
514.053,1748.51
514.261,1734.32
514.468,1720.51
514.676,1706.93
514.883,1693.57
515.091,1679.94
515.298,1666.54
515.505,1653.2
515.713,1639.81
515.92,1626.33
516.128,1612.86
516.335,1599.57
516.542,1586.39
516.75,1573.43
516.957,1560.28
517.164,1546.99
517.371,1534.23
517.579,1521.23
517.786,1508.36
517.993,1495.35
518.2,1482.64
518.408,1470.41
518.615,1457.17
518.822,1444.74
519.029,1432.28
519.236,1420.06
519.443,1407.68
519.65,1395.5
519.858,1383.29
520.065,1371.42
520.272,1359.55
520.479,1347.77
520.686,1336.07
520.893,1324.3
521.1,1312.4
521.307,1300.89
521.514,1289.36
521.721,1277.96
521.928,1266.53
522.135,1255.04
522.342,1244.09
522.549,1233.07
522.756,1222.04
522.963,1211.36
523.17,1200.51
523.376,1189.78
523.583,1179.13
523.79,1169.01
523.997,1158.44
524.204,1147.98
524.411,1137.65
524.617,1127.55
524.824,1117.59
525.031,1107.3
525.238,1097.11
525.444,1087.33
525.651,1077.59
525.858,1067.71
526.065,1057.98
526.271,1048.36
526.478,1038.82
526.685,1029.55
526.891,1020.3
527.098,1011.14
527.304,1002.17
527.511,993.452
527.718,984.572
527.924,975.721
528.131,967.105
528.337,958.391
528.544,949.748
528.75,941.238
528.957,932.866
529.163,924.544
529.37,916.058
529.576,907.693
529.783,899.676
529.989,891.559
530.196,883.406
530.402,875.342
530.608,867.361
530.815,859.438
531.021,851.445
531.228,843.554
531.434,835.763
531.64,828.121
531.847,820.594
532.053,812.829
532.259,805.656
532.465,798.248
532.672,791.702
532.878,784.4
533.084,777.019
533.29,769.94
533.497,762.873
533.703,756.04
533.909,749.06
534.115,742.228
534.321,735.606
534.527,728.929
534.734,721.955
534.94,715.117
535.146,708.92
535.352,702.216
535.558,695.985
535.764,689.723
535.97,683.424
536.176,677.377
536.382,671.223
536.588,665.247
536.794,659.281
537,653.089
537.206,646.973
537.412,641.078
537.618,635.209
537.824,629.471
538.03,623.776
538.235,617.842
538.441,612.164
538.647,606.764
538.853,601.089
539.059,595.457
539.265,589.918
539.471,584.529
539.676,578.961
539.882,573.586
540.088,568.183
540.294,562.898
540.499,557.457
540.705,552.126
540.911,547.342
541.116,542.23
541.322,537.376
541.528,532.614
541.733,527.72
541.939,522.28
542.145,517.374
542.35,512.467
542.556,507.756
542.762,503.066
542.967,497.994
543.173,493.17
543.378,488.568
543.584,483.833
543.789,479.312
543.995,474.824
544.2,470.515
544.406,466.182
544.611,461.953
544.817,457.692
545.022,453.243
545.227,448.907
545.433,444.831
545.638,440.58
545.844,436.561
546.049,432.526
546.254,428.27
546.46,424.423
546.665,420.469
546.87,416.307
547.076,412.474
547.281,408.694
547.486,405.007
547.691,401.392
547.897,397.341
548.102,393.558
548.307,389.771
548.512,385.896
548.717,382.331
548.923,378.66
549.128,375.091
549.333,371.449
549.538,367.991
549.743,364.288
549.948,360.994
550.153,357.334
550.358,354.109
550.563,350.65
550.768,347.243
550.974,343.931
551.179,340.874
551.384,337.424
551.589,334.316
551.793,331.034
551.998,328.089
552.203,325.004
552.408,321.989
552.613,319.051
552.818,316.141
553.023,313.195
553.228,309.789
553.433,306.714
553.638,303.765
553.842,300.689
554.047,297.722
554.252,294.904
554.457,292.188
554.662,289.586
554.866,286.747
555.071,284.043
555.276,281.291
555.481,278.658
555.685,276.142
555.89,273.686
556.095,271.063
556.299,268.445
556.504,265.878
556.709,263.196
556.913,260.628
557.118,258.03
557.322,255.681
557.527,253.234
557.732,250.752
557.936,248.129
558.141,245.742
558.345,243.501
558.55,241.113
558.754,238.764
558.959,236.564
559.163,234.495
559.368,232.408
559.572,229.958
559.777,227.525
559.981,225.354
560.185,223.172
560.39,221.1
560.594,218.922
560.798,217.082
561.003,215.145
561.207,213.479
561.411,211.36
561.616,209.53
561.82,207.532
562.024,205.28
562.229,203.365
562.433,201.512
562.637,199.884
562.841,197.91
563.046,196.014
563.25,194.494
563.454,192.791
563.658,190.826
563.862,189.163
564.066,187.341
564.27,185.504
564.475,183.831
564.679,182.311
564.883,180.912
565.087,178.826
565.291,177.414
565.495,175.789
565.699,174.096
565.903,172.153
566.107,170.228
566.311,168.775
566.515,167.261
566.719,165.957
566.923,164.446
567.127,162.99
567.331,161.568
567.534,159.855
567.738,158.606
567.942,157.125
568.146,156.011
568.35,154.383
568.554,152.79
568.758,151.155
568.961,149.811
569.165,148.424
569.369,146.777
569.573,145.55
569.776,144.115
569.98,142.766
570.184,141.315
570.388,140.082
570.591,138.774
570.795,137.44
570.999,136.073
571.202,134.824
571.406,133.639
571.609,132.512
571.813,131.386
572.017,130.35
572.22,129.297
572.424,128.389
572.627,127.242
572.831,126.238
573.034,124.902
573.238,124.235
573.441,123.165
573.645,121.97
573.848,120.21
574.052,118.937
574.255,118.039
574.459,116.994
574.662,116.072
574.865,115.23
575.069,114.342
575.272,113.393
575.475,112.293
575.679,111.346
575.882,110.531
576.085,109.717
576.289,108.668
576.492,107.654
576.695,106.522
576.899,105.6
577.102,104.806
577.305,103.75
577.508,103.119
577.711,102.289
577.915,101.367
578.118,100.656
578.321,99.8326
578.524,98.8437
578.727,97.8596
578.93,97.0095
579.133,96.1885
579.336,95.3081
579.539,94.3799
579.743,94.18
579.946,93.2231
580.149,92.4982
580.352,91.7606
580.555,90.845
580.758,90.3649
580.961,89.8483
581.163,88.988
581.366,88.4528
581.569,87.6714
581.772,86.9369
581.975,86.0034
582.178,85.1926
582.381,84.4543
582.584,83.7138
582.787,82.9814
582.989,82.5893
583.192,82.0832
583.395,81.4914
583.598,80.9408
583.801,80.3775
584.003,79.7114
584.206,79.1418
584.409,78.4198
584.612,77.9045
584.814,77.3372
585.017,76.808
585.22,76.0672
585.422,75.3277
585.625,74.8953
585.827,74.3182
586.03,73.907
586.233,73.5198
586.435,72.7876
586.638,72.2264
586.84,71.6467
587.043,71.1152
587.245,70.6744
587.448,70.0232
587.65,69.5398
587.853,69.0662
588.055,68.4237
588.258,67.9271
588.46,67.2159
588.663,66.6034
588.865,66.2131
589.068,65.7783
589.27,65.4263
589.472,65.0911
589.675,64.5199
589.877,64.1546
590.079,63.824
590.282,63.2062
590.484,62.8039
590.686,62.3515
590.889,61.7632
591.091,61.5079
591.293,61.1185
591.495,60.5772
591.697,60.3737
591.9,59.9559
592.102,59.5533
592.304,59.3336
592.506,59.0057
592.708,58.5725
592.91,58.2505
593.113,58.0744
593.315,57.9049
593.517,57.6651
593.719,57.3474
593.921,56.9449
594.123,56.6684
594.325,56.5408
594.527,56.2543
594.729,56.0024
594.931,55.8088
595.133,55.57
595.335,55.0887
595.537,54.5566
595.739,54.2832
595.941,53.8216
596.143,54.6858
596.344,54.4337
596.546,54.3206
596.748,53.9102
596.95,53.5872
597.152,53.259
597.354,52.9191
597.556,52.9969
597.757,52.6344
597.959,52.4479
598.161,52.0879
598.363,51.9159
598.564,51.7268
598.766,51.6151
598.968,51.483
599.169,51.3231
599.371,51.1154
599.573,50.9104
599.774,50.6074
599.976,50.2885
600.178,50.0709
600.379,49.9641
600.581,49.6727
600.782,49.441
600.984,49.3134
601.185,49.0962
601.387,49.0157
601.589,48.893
601.79,48.5144
601.992,48.0526
602.193,47.945
602.394,47.6496
602.596,47.4354
602.797,47.416
602.999,47.5126
603.2,47.4978
603.402,47.0405
603.603,46.8622
603.804,46.9058
604.006,46.7379
604.207,46.6484
604.408,46.4141
604.61,46.055
604.811,45.7332
605.012,45.5439
605.213,45.2352
605.415,44.9465
605.616,44.6334
605.817,44.4716
606.018,44.2379
606.219,44.0313
606.421,43.9968
606.622,43.9359
606.823,43.9889
607.024,43.8815
607.225,43.7882
607.426,43.6498
607.627,43.5601
607.828,43.3136
608.029,43.1292
608.23,43.1008
608.432,42.8822
608.633,42.8296
608.834,42.6709
609.035,42.7308
609.235,42.6401
609.436,42.5066
609.637,42.3532
609.838,42.2525
610.039,42.1794
610.24,41.8804
610.441,41.9845
610.642,41.9199
610.843,41.9792
611.044,41.773
611.244,41.634
611.445,41.5407
611.646,41.4802
611.847,41.2297
612.048,41.2041
612.248,41.1725
612.449,41.287
612.65,41.1625
612.85,41.0539
613.051,41.004
613.252,41.0527
613.453,40.8004
613.653,40.8446
613.854,40.5224
614.054,40.3003
614.255,40.3863
614.456,40.2051
614.656,40.1699
614.857,40.0089
615.057,39.9594
615.258,39.7438
615.458,39.6069
615.659,39.5881
615.859,39.4667
616.06,39.5883
616.26,39.5127
616.461,39.5944
616.661,39.4104
616.862,39.4039
617.062,39.5103
617.263,39.5906
617.463,39.4398
617.663,39.2541
617.864,39.1486
618.064,38.9815
618.264,38.8152
618.465,38.9185
618.665,39.0495
618.865,39.3075
619.065,39.5386
619.266,39.4497
619.466,39.5366
619.666,39.3385
619.866,39.174
620.067,39.4151
620.267,38.5996
620.467,38.534
620.667,38.4993
620.867,38.6515
621.067,38.9006
621.267,38.7644
621.467,38.5323
621.668,38.4178
621.868,38.3508
622.068,38.7155
622.268,38.7773
622.468,38.7816
622.668,39.0012
622.868,38.8089
623.068,38.6687
623.268,38.5658
623.468,38.3701
623.667,38.1621
623.867,38.1452
624.067,38.1922
624.267,38.0965
624.467,38.2882
624.667,38.2554
624.867,38.2998
625.067,38.4011
625.266,38.2849
625.466,38.0889
625.666,38.2581
625.866,38.5075
626.066,38.406
626.265,38.2923
626.465,38.2367
626.665,38.167
626.864,38.2387
627.064,38.2778
627.264,38.5144
627.463,38.2988
627.663,38.5849
627.863,38.7706
628.062,38.8243
628.262,38.9969
628.461,39.1683
628.661,39.1355
628.861,39.2812
629.06,39.3851
629.26,39.3745
629.459,39.3754
629.659,39.4318
629.858,39.4206
630.058,39.4919
630.257,39.3707
630.457,39.4377
630.656,39.5433
630.855,39.5107
631.055,39.5637
631.254,39.6965
631.453,39.7414
631.653,39.5561
631.852,39.7157
632.052,39.7136
632.251,39.6757
632.45,39.5661
632.649,39.5842
632.849,39.5097
633.048,39.5147
633.247,39.6062
633.446,39.6529
633.646,39.7051
633.845,39.7564
634.044,40.0234
634.243,39.9965
634.442,40.0295
634.641,40.07
634.84,40.1617
635.04,40.1968
635.239,40.4833
635.438,40.4699
635.637,40.683
635.836,40.6698
636.035,40.7812
636.234,40.887
636.433,39.9188
636.632,39.9614
636.831,39.906
637.03,40.0238
637.229,39.9339
637.428,39.9871
637.627,39.9893
637.825,39.7293
638.024,39.9329
638.223,40.055
638.422,40.1579
638.621,40.2428
638.82,40.389
639.019,40.3918
639.217,40.3129
639.416,40.357
639.615,40.7236
639.814,40.7278
640.012,40.7631
640.211,40.8727
640.41,40.8091
640.609,40.8748
640.807,41.1211
641.006,41.2369
641.205,41.4716
641.403,41.6031
641.602,41.6363
641.8,41.3828
641.999,41.5668
642.198,41.59
642.396,41.719
642.595,41.7206
642.793,41.9466
642.992,42.0844
643.19,41.9069
643.389,42.0396
643.587,42.1445
643.786,42.4396
643.984,42.5977
644.183,42.5341
644.381,42.7124
644.579,42.8907
644.778,43.0336
644.976,43.4069
645.174,43.4764
645.373,43.6555
645.571,44.0176
645.769,44.2324
645.968,44.3251
646.166,44.4366
646.364,44.6783
646.563,44.6487
646.761,44.6842
646.959,44.7502
647.157,44.8975
647.355,44.9489
647.554,44.7182
647.752,44.6491
647.95,44.8301
648.148,44.8281
648.346,44.9666
648.544,45.0143
648.742,45.0563
648.94,44.8906
649.139,44.9672
649.337,44.957
649.535,45.1464
649.733,45.3483
649.931,45.4398
650.129,45.4263
650.327,45.6405
650.525,45.8624
650.723,45.8359
650.92,45.7781
651.118,45.9664
651.316,46.1
651.514,46.2788
651.712,46.366
651.91,46.6101
652.108,46.7267
652.306,46.8925
652.503,46.7487
652.701,46.942
652.899,47.0539
653.097,46.8752
653.294,46.8644
653.492,46.8459
653.69,46.9068
653.888,46.8506
654.085,46.883
654.283,46.9659
654.481,47.0816
654.678,47.0009
654.876,47.2379
655.074,47.4568
655.271,47.7942
655.469,47.8972
655.666,48.028
655.864,47.9446
656.062,47.6467
656.259,47.6318
656.457,47.6306
656.654,47.7576
656.852,47.5874
657.049,47.6392
657.246,47.5336
657.444,47.4857
657.641,47.6648
657.839,47.7535
658.036,47.7973
658.234,48.0092
658.431,48.0359
658.628,48.0127
658.826,47.7309
659.023,47.6331
659.22,48.0677
659.418,47.9921
659.615,48.362
659.812,48.668
660.009,48.5091
660.207,48.7616
660.404,49.0198
660.601,49.0636
660.798,49.1522
660.995,48.8747
661.193,49.1123
661.39,49.4976
661.587,49.9009
661.784,49.9323
661.981,49.9392
662.178,50.0546
662.375,50.0945
662.572,50.2977
662.769,50.7761
662.966,50.9868
663.163,51.1574
663.36,51.5046
663.557,51.87
663.754,52.2853
663.951,52.2144
664.148,52.3071
664.345,52.5131
664.542,52.7045
664.739,52.8956
664.936,52.9056
665.133,53.2007
665.33,53.445
665.526,53.4204
665.723,53.5526
665.92,53.5618
666.117,53.6394
666.314,53.8658
666.51,54.0645
666.707,54.1937
666.904,54.2754
667.101,54.2558
667.297,54.6936
667.494,54.7309
667.691,54.7476
667.887,55.062
668.084,55.0418
668.281,55.2489
668.477,55.524
668.674,56.0212
668.87,56.2977
669.067,56.5229
669.264,56.7855
669.46,56.9286
669.657,57.2453
669.853,57.6143
670.05,58.1716
670.246,58.1873
670.443,58.5729
670.639,58.9645
670.836,59.4738
671.032,59.7589
671.228,60.177
671.425,60.7364
671.621,61.1429
671.817,61.7321
672.014,62.3397
672.21,62.8001
672.406,63.3289
672.603,63.9353
672.799,64.6188
672.995,64.8816
673.192,65.202
673.388,65.7029
673.584,66.1528
673.78,66.5333
673.977,66.92
674.173,67.5212
674.369,67.9565
674.565,68.4227
674.761,69.0045
674.957,69.517
675.153,70.2991
675.349,70.7372
675.546,71.6249
675.742,72.4642
675.938,73.2133
676.134,73.9243
676.33,74.7628
676.526,75.4748
676.722,76.4587
676.918,77.1452
677.114,78.1303
677.31,78.8769
677.506,79.9596
677.701,80.836
677.897,81.7936
678.093,82.6804
678.289,83.6288
678.485,84.3848
678.681,85.1849
678.877,86.335
679.072,87.1719
679.268,87.8195
679.464,88.7824
679.66,89.7177
679.856,90.3904
680.051,91.6344
680.247,92.6747
680.443,93.5691
680.638,94.6234
680.834,95.3033
681.03,96.252
681.225,97.308
681.421,98.4991
681.617,99.5164
681.812,100.522
682.008,101.528
682.203,102.473
682.399,103.393
682.595,104.428
682.79,105.696
682.986,106.683
683.181,107.869
683.377,108.979
683.572,109.917
683.767,111.108
683.963,112.054
684.158,113.126
684.354,114.171
684.549,115.181
684.745,116.347
684.94,117.508
685.135,118.332
685.331,119.347
685.526,120.376
685.721,121.671
685.916,122.684
686.112,123.847
686.307,125.117
686.502,126.164
686.697,127.203
686.893,128.468
687.088,129.902
687.283,131.152
687.478,132.356
687.673,133.451
687.869,134.552
688.064,135.532
688.259,136.677
688.454,137.98
688.649,139.025
688.844,140.412
689.039,141.424
689.234,142.537
689.429,143.655
689.624,144.787
689.819,146.017
690.014,146.801
690.209,148.105
690.404,149.115
690.599,150.343
690.794,151.497
690.989,152.61
691.184,153.917
691.378,154.959
691.573,156.254
691.768,157.357
691.963,158.744
692.158,159.868
692.353,161.125
692.547,162.274
692.742,163.67
692.937,164.991
693.132,166.226
693.326,167.55
693.521,168.881
693.716,170.037
693.91,171.363
694.105,172.839
694.3,174.025
694.494,175.2
694.689,176.353
694.883,177.538
695.078,178.554
695.273,179.902
695.467,181.278
695.662,182.622
695.856,183.974
696.051,185.412
696.245,186.841
696.44,188.084
696.634,189.419
696.829,190.676
697.023,191.804
697.217,193.08
697.412,194.303
697.606,195.365
697.801,196.558
697.995,197.541
698.189,198.763
698.384,199.978
698.578,200.979
698.772,202.237
698.967,203.117
699.161,204.199
699.355,205.301
699.549,206.353
699.744,207.396
699.938,208.436
700.132,209.238
700.326,210.377
700.52,211.454
700.714,212.209
700.909,213.038
701.103,213.991
701.297,214.837
701.491,215.882
701.685,216.831
701.879,217.275
702.073,218.114
702.267,219.053
702.461,220.099
702.655,220.902
702.849,221.568
703.043,222.154
703.237,223.179
703.431,223.835
703.625,224.578
703.819,225.247
704.013,226.016
704.206,226.589
704.4,227.49
704.594,228.263
704.788,228.896
704.982,229.344
705.176,230.125
705.369,230.942
705.563,231.591
705.757,232.373
705.951,233.073
706.144,233.952
706.338,234.668
706.532,235.293
706.725,235.902
706.919,236.34
707.113,236.788
707.306,237.73
707.5,238.26
707.693,238.848
707.887,239.193
708.081,239.802
708.274,240.319
708.468,240.857
708.661,241.498
708.855,242.141
709.048,242.553
709.242,242.834
709.435,243.4
709.629,244.011
709.822,244.379
710.015,244.43
710.209,244.799
710.402,244.957
710.596,245.27
710.789,245.466
710.982,245.621
711.176,245.964
711.369,246.142
711.562,246.203
711.756,246.246
711.949,246.532
712.142,246.509
712.335,246.717
712.529,246.597
712.722,246.546
712.915,246.537
713.108,246.525
713.301,246.388
713.494,246.453
713.688,246.515
713.881,246.406
714.074,246.209
714.267,245.844
714.46,245.94
714.653,245.588
714.846,245.214
715.039,245.027
715.232,244.676
715.425,244.127
715.618,243.747
715.811,243.223
716.004,242.957
716.197,242.404
716.39,242.247
716.583,241.585
716.775,241.085
716.968,240.437
717.161,239.853
717.354,239.242
717.547,238.797
717.74,238.463
717.932,237.778
718.125,237.132
718.318,236.773
718.511,236.33
718.703,235.725
718.896,235.229
719.089,234.348
719.282,233.521
719.474,232.904
719.667,232.063
719.86,231.418
720.052,230.718
720.245,229.9
720.437,229.143
720.63,228.616
720.823,227.974
721.015,227.079
721.208,226.325
721.4,225.378
721.593,224.349
721.785,223.32
721.978,222.332
722.17,221.238
722.362,220.07
722.555,219.401
722.747,218.331
722.94,217.464
723.132,216.506
723.324,215.568
723.517,214.749
723.709,213.605
723.901,212.781
724.094,211.785
724.286,210.755
724.478,209.81
724.671,208.712
724.863,207.807
725.055,206.91
725.247,206.001
725.439,204.832
725.632,203.968
725.824,202.821
726.016,201.601
726.208,200.541
726.4,199.372
726.592,198.206
726.784,197.255
726.976,196.256
727.169,195.176
727.361,193.849
727.553,192.817
727.745,191.64
727.937,190.651
728.129,189.388
728.321,188.203
728.512,187.13
728.704,186.064
728.896,185.155
729.088,183.855
729.28,182.817
729.472,181.553
729.664,180.303
729.856,179.039
730.048,177.697
730.239,176.535
730.431,175.061
730.623,173.89
730.815,172.693
731.006,171.549
731.198,170.281
731.39,169.105
731.582,167.718
731.773,166.521
731.965,165.194
732.157,163.768
732.348,162.647
732.54,161.425
732.732,160.274
732.923,159.065
733.115,157.762
733.306,156.423
733.498,155.146
733.689,153.893
733.881,152.641
734.072,151.312
734.264,150.035
734.455,148.784
734.647,147.207
734.838,145.858
735.03,144.458
735.221,143.316
735.412,142.217
735.604,141.199
735.795,140.147
735.987,138.85
736.178,137.586
736.369,136.53
736.561,135.349
736.752,134.378
736.943,133.131
737.134,131.86
737.326,130.417
737.517,129.079
737.708,127.928
737.899,126.668
738.09,125.496
738.282,124.404
738.473,123.162
738.664,122.043
738.855,121.08
739.046,119.875
739.237,118.57
739.428,117.547
739.619,116.53
739.81,115.566
740.001,114.333
740.192,113.194
740.383,112.284
740.574,111.361
740.765,110.161
740.956,108.934
741.147,107.994
741.338,106.845
741.529,105.888
741.72,104.782
741.911,103.559
742.102,103.021
742.292,102.054
742.483,101.03
742.674,100.089
742.865,99.4029
743.056,98.2527
743.246,97.5593
743.437,96.7332
743.628,95.8659
743.819,95.0243
744.009,94.3551
744.2,93.4079
744.391,92.6195
744.581,91.7367
744.772,90.7704
744.963,89.8469
745.153,88.8865
745.344,88.0467
745.534,87.5047
745.725,86.5377
745.916,85.4555
746.106,84.6294
746.297,83.835
746.487,82.8416
746.678,81.9853
746.868,81.1876
747.058,80.4191
747.249,79.531
747.439,78.5032
747.63,77.6956
747.82,77.069
748.011,76.3841
748.201,75.1773
748.391,74.3455
748.582,73.8982
748.772,73.132
748.962,72.647
749.152,71.9301
749.343,71.4398
749.533,70.6761
749.723,69.7079
749.913,69.1054
750.104,68.4266
750.294,67.8965
750.484,67.0466
750.674,66.6186
750.864,65.9075
751.054,65.4009
751.245,64.7775
751.435,64.242
751.625,63.9096
751.815,63.4591
752.005,62.8836
752.195,62.2193
752.385,61.8223
752.575,61.0859
752.765,60.6816
752.955,60.0686
753.145,59.5995
753.335,59.0106
753.525,58.5189
753.715,57.8788
753.904,57.6123
754.094,57.2157
754.284,56.6914
754.474,56.2769
754.664,55.8262
754.854,55.3917
755.044,55.0567
755.233,54.792
755.423,54.3879
755.613,53.9443
755.803,53.6192
755.992,53.2058
756.182,52.9297
756.372,52.7222
756.561,52.7363
756.751,52.4045
756.941,51.8119
757.13,51.428
757.32,51.0172
757.51,50.7513
757.699,50.5717
757.889,50.1279
758.078,49.7375
758.268,49.3523
758.457,49.1714
758.647,48.8252
758.836,48.501
759.026,48.0017
759.215,47.7388
759.405,47.4723
759.594,47.3278
759.784,47.2644
759.973,47.1415
760.162,46.9877
760.352,46.8642
760.541,46.7513
760.73,46.4974
760.92,45.8995
761.109,45.7316
761.298,45.4178
761.488,45.409
761.677,45.2531
761.866,44.8478
762.055,44.7959
762.244,44.5678
762.434,44.4068
762.623,44.2434
762.812,44.0337
763.001,43.6637
763.19,43.4968
763.379,43.2241
763.568,42.961
763.758,43.1434
763.947,42.8539
764.136,42.7526
764.325,42.5543
764.514,42.3501
764.703,42.0964
764.892,42.1904
765.081,41.921
765.27,41.7818
765.459,41.5827
765.648,41.8236
765.836,41.5542
766.025,41.3278
766.214,41.2255
766.403,40.993
766.592,40.8927
766.781,40.812
766.97,40.5428
767.158,40.3398
767.347,40.1467
767.536,40.1456
767.725,39.8383
767.913,39.7752
768.102,39.8023
768.291,39.896
768.48,39.7613
768.668,39.8707
768.857,39.6949
769.046,39.5836
769.234,39.5529
769.423,39.4292
769.611,39.4133
769.8,39.2003
769.989,39.1695
770.177,39.2187
770.366,39.2472
770.554,38.8553
770.743,38.6403
770.931,38.3905
771.12,38.2801
771.308,38.1892
771.496,38.1205
771.685,38.0323
771.873,37.8607
772.062,37.9263
772.25,37.9381
772.438,37.8527
772.627,37.6887
772.815,37.7991
773.003,37.5691
773.192,37.6718
773.38,37.6212
773.568,37.4599
773.757,37.3759
773.945,37.1672
774.133,37.233
774.321,37.1458
774.509,36.8923
774.698,36.5455
774.886,36.2421
775.074,36.2702
775.262,36.0212
775.45,36.2372
775.638,36.2101
775.826,36.0962
776.014,36.0821
776.202,36.0414
776.39,35.8461
776.578,35.689
776.766,35.7489
776.954,35.6644
777.142,35.6042
777.33,35.6293
777.518,35.7021
777.706,35.6517
777.894,35.593
778.082,35.7591
778.27,35.6966
778.458,35.4011
778.646,35.4967
778.833,35.4791
779.021,35.581
779.209,35.2403
779.397,35.1618
779.585,35.0298
779.772,34.8894
779.96,34.844
780.148,34.6059
780.335,34.5265
780.523,34.5709
780.711,34.5929
780.898,34.4433
781.086,34.6408
781.274,34.2766
781.461,34.2736
781.649,34.3414
781.836,34.2271
782.024,34.0967
782.212,34.0725
782.399,33.8835
782.587,33.9198
782.774,33.7588
782.962,33.7717
783.149,33.7008
783.336,33.7782
783.524,33.5418
783.711,33.7768
783.899,33.7556
784.086,33.9141
784.273,33.7849
784.461,33.7421
784.648,33.5157
784.836,33.3853
785.023,33.28
785.21,33.8583
785.397,33.8359
785.585,33.8355
785.772,33.8145
785.959,33.6959
786.146,33.9732
786.334,33.9406
786.521,33.8909
786.708,33.8772
786.895,33.6661
787.082,33.6936
787.269,33.5559
787.456,33.4937
787.643,33.5983
787.83,33.4279
788.018,33.5078
788.205,33.4489
788.392,33.3321
788.579,33.3225
788.766,33.3492
788.953,33.358
789.14,33.3501
789.326,33.3619
789.513,33.1074
789.7,32.9507
789.887,32.9272
790.074,33.2135
790.261,33.0203
790.448,33.1927
790.635,33.1477
790.821,33.1573
791.008,33.1919
791.195,33.3185
791.382,33.2276
791.569,33.5803
791.755,33.3833
791.942,33.5842
792.129,33.5726
792.315,33.4896
792.502,33.4197
792.689,33.2773
792.875,33.1962
793.062,33.066
793.249,33.2384
793.435,33.1881
793.622,33.1685
793.808,33.1927
793.995,33.1306
794.181,32.8339
794.368,32.5796
794.554,32.4995
794.741,32.5667
794.927,32.5951
795.114,32.6825
795.3,32.7583
795.487,32.5989
795.673,32.6872
795.859,32.7444
796.046,33.0075
796.232,32.8773
796.418,33.0637
796.605,33.1567
796.791,33.1175
796.977,33.0631
797.164,33.0748
797.35,33.0318
797.536,32.8151
797.722,32.7787
797.909,32.6733
798.095,32.6154
798.281,32.5478
798.467,32.7774
798.653,32.99
798.839,33.0336
799.025,33.2404
799.212,33.1308
799.398,33.1224
799.584,33.5516
799.77,33.5687
799.956,33.4401
800.142,33.561
800.328,33.6089
800.514,33.8357
800.7,33.8393
800.886,33.7927
801.072,33.8774
801.258,34.253
801.443,34.1902
801.629,34.5935
801.815,34.6964
802.001,34.8894
802.187,34.9842
802.373,35.2572
802.559,35.0532
802.744,35.1276
802.93,35.2112
803.116,35.2855
803.302,35.5217
803.487,36.0037
803.673,36.2631
803.859,36.2482
804.045,36.3831
804.23,36.6619
804.416,36.6936
804.601,36.7417
804.787,36.9492
804.973,37.2163
805.158,37.2261
805.344,37.5428
805.529,37.9353
805.715,37.866
805.9,37.9526
806.086,38.0916
806.271,38.029
806.457,38.3361
806.642,38.4335
806.828,38.504
807.013,38.5955
807.199,38.8561
807.384,39.0603
807.569,39.1459
807.755,39.2939
807.94,39.5274
808.125,39.8013
808.311,40.1866
808.496,40.5909
808.681,40.6349
808.867,40.909
809.052,41.0559
809.237,41.1729
809.422,41.4517
809.608,41.5554
809.793,41.762
809.978,41.9945
810.163,42.1262
810.348,42.2741
810.533,42.6847
810.718,42.8877
810.903,42.9476
811.089,43.0293
811.274,43.1938
811.459,43.4566
811.644,43.4744
811.829,43.744
812.014,44.1578
812.199,44.6799
812.384,44.8802
812.569,45.1757
812.754,45.5731
812.938,45.8983
813.123,46.0797
813.308,46.3835
813.493,46.5386
813.678,46.7727
813.863,46.9987
814.048,47.241
814.232,47.2512
814.417,47.6104
814.602,47.9958
814.787,48.0883
814.971,48.0979
815.156,48.2183
815.341,48.1505
815.526,48.1604
815.71,48.3116
815.895,48.7049
816.079,48.9866
816.264,49.2515
816.449,49.368
816.633,49.7621
816.818,50.0427
817.002,50.132
817.187,50.5216
817.371,50.9832
817.556,51.4207
817.741,51.6548
817.925,51.922
818.109,51.9646
818.294,52.105
818.478,52.1844
818.663,52.3195
818.847,52.4781
819.032,52.7939
819.216,52.9354
819.4,53.1707
819.585,53.2088
819.769,53.3772
819.953,53.4958
820.137,53.7472
820.322,53.9377
820.506,54.362
820.69,54.3588
820.874,54.6626
821.059,54.9087
821.243,55.1767
821.427,55.2067
821.611,55.7273
821.795,56.066
821.979,56.4503
822.164,56.7163
822.348,56.9502
822.532,56.4915
822.716,56.6242
822.9,56.7756
823.084,56.7448
823.268,56.8679
823.452,57.0739
823.636,57.2868
823.82,57.3516
824.004,57.6697
824.188,57.8821
824.372,57.9626
824.555,58.1278
824.739,58.6071
824.923,58.9735
825.107,59.3668
825.291,59.5152
825.475,59.7275
825.658,60.037
825.842,60.0438
826.026,60.5055
826.21,60.6553
826.394,60.9061
826.577,61.1497
826.761,61.5154
826.945,61.8164
827.128,61.9554
827.312,61.9882
827.496,62.3269
827.679,62.4218
827.863,62.5549
828.046,62.7426
828.23,63.0389
828.414,63.0515
828.597,63.22
828.781,63.306
828.964,63.7607
829.148,63.9294
829.331,64.2605
829.515,64.4835
829.698,64.762
829.881,65.1445
830.065,65.3727
830.248,65.5295
830.432,65.6743
830.615,65.9916
830.798,66.3735
830.982,66.5426
831.165,66.6131
831.348,66.9475
831.532,67.3728
831.715,67.4537
831.898,67.9391
832.081,68.268
832.265,68.5177
832.448,68.5823
832.631,69.021
832.814,69.2945
832.997,69.5245
833.18,69.5592
833.363,69.9635
833.547,70.1595
833.73,70.3407
833.913,70.4878
834.096,70.7115
834.279,71.0818
834.462,71.2998
834.645,71.8388
834.828,72.0791
835.011,72.277
835.194,72.5679
835.377,72.7897
835.56,72.8871
835.743,73.1167
835.925,73.4911
836.108,73.6584
836.291,73.943
836.474,74.0468
836.657,74.1287
836.84,74.3514
837.022,74.5536
837.205,74.6493
837.388,74.763
837.571,75.0328
837.753,75.3833
837.936,75.6328
838.119,75.8217
838.302,75.6303
838.484,75.7096
838.667,75.4579
838.849,75.5651
839.032,75.6138
839.215,76.0016
839.397,76.1901
839.58,76.6266
839.762,76.6706
839.945,76.7311
840.127,77.1234
840.31,76.9166
840.492,77.0865
840.675,77.1839
840.857,77.3875
841.04,77.6041
841.222,77.7278
841.405,77.9357
841.587,78.2888
841.769,78.3222
841.952,78.4614
842.134,78.732
842.316,78.8753
842.499,78.8765
842.681,79.1147
842.863,79.1471
843.045,79.3664
843.228,79.5449
843.41,79.529
843.592,79.7153
843.774,79.8553
843.957,79.9679
844.139,79.8642
844.321,80.0617
844.503,80.1016
844.685,80.1933
844.867,80.2669
845.049,80.4073
845.231,80.4436
845.413,80.3781
845.595,80.5534
845.777,80.7782
845.959,80.9834
846.141,81.2287
846.323,81.1898
846.505,81.3498
846.687,81.332
846.869,81.5592
847.051,81.7538
847.233,81.7942
847.415,81.7033
847.597,81.7816
847.778,82.0159
847.96,82.2309
848.142,82.0976
848.324,82.2075
848.506,82.5109
848.687,82.5168
848.869,82.4015
849.051,82.3352
849.232,82.5156
849.414,82.656
849.596,82.7357
849.777,82.504
849.959,82.5531
850.141,82.5192
850.322,82.483
850.504,82.5417
850.685,82.6395
850.867,82.6735
851.049,83.1909
851.23,83.1147
851.412,83.1245
851.593,83.1986
851.775,83.3354
851.956,83.4185
852.137,83.6278
852.319,83.7582
852.5,83.7971
852.682,83.8803
852.863,83.952
853.044,84.1287
853.226,84.2605
853.407,84.0771
853.588,84.0353
853.77,84.0551
853.951,84.1368
854.132,84.0084
854.313,83.9919
854.495,84.0292
854.676,84.1731
854.857,84.3962
855.038,84.5081
855.219,84.5495
855.4,84.6031
855.582,84.576
855.763,84.2768
855.944,84.3752
856.125,84.2255
856.306,84.7207
856.487,84.8142
856.668,84.784
856.849,84.7282
857.03,84.5768
857.211,84.4875
857.392,84.3795
857.573,84.2467
857.754,84.1374
857.935,84.0327
858.116,83.9734
858.296,83.5982
858.477,83.4499
858.658,83.3541
858.839,83.3908
859.02,83.2225
859.201,83.4214
859.381,83.551
859.562,83.6455
859.743,83.5779
859.924,83.6306
860.104,83.6445
860.285,83.5283
860.466,83.54
860.646,83.3547
860.827,83.3657
861.008,83.4026
861.188,83.3806
861.369,83.217
861.549,83.1228
861.73,83.0588
861.911,82.841
862.091,82.8514
862.272,82.9066
862.452,83.0827
862.633,82.7811
862.813,82.9032
862.994,82.8569
863.174,82.6437
863.354,82.5433
863.535,82.366
863.715,82.3599
863.896,82.2759
864.076,82.2731
864.256,82.2898
864.437,82.3786
864.617,82.3917
864.797,82.1388
864.977,82.1708
865.158,82.0827
865.338,81.9159
865.518,81.579
865.698,81.2693
865.878,81.0753
866.059,80.8829
866.239,80.7877
866.419,80.5067
866.599,80.3327
866.779,80.2669
866.959,79.9694
867.139,79.808
867.319,79.3309
867.499,79.3648
867.679,79.4098
867.859,79.1135
868.039,78.5384
868.219,78.5287
868.399,78.1696
868.579,78.0318
868.759,77.9247
868.939,77.7278
869.119,77.4886
869.299,77.4217
869.479,77.2817
869.659,77.0886
869.838,76.8538
870.018,76.7552
870.198,76.8359
870.378,76.51
870.557,76.431
870.737,76.1049
870.917,75.7296
871.097,75.535
871.276,75.4017
871.456,75.1641
871.636,74.8869
871.815,75.0025
871.995,74.9379
872.175,74.6766
872.354,74.2675
872.534,74.1627
872.713,73.8727
872.893,73.8825
873.072,73.4941
873.252,73.1583
873.431,72.9276
873.611,72.7854
873.79,72.7275
873.97,72.2501
874.149,72.2417
874.328,71.9633
874.508,71.6291
874.687,71.5018
874.867,71.3286
875.046,71.4272
875.225,71.3259
875.405,71.2788
875.584,70.9978
875.763,70.7154
875.942,70.371
876.122,70.3258
876.301,70.2561
876.48,69.9005
876.659,69.6808
876.838,69.1755
877.018,68.8971
877.197,68.7659
877.376,68.5867
877.555,68.2827
877.734,67.9159
877.913,67.5994
878.092,67.3796
878.271,67.1008
878.45,66.6433
878.629,66.4008
878.808,65.9861
878.987,65.8983
879.166,65.7876
879.345,65.5087
879.524,65.398
879.703,65.2071
879.882,64.9401
880.061,64.762
880.24,64.6493
880.418,64.7019
880.597,64.556
880.776,64.4953
880.955,65.733
881.134,65.4592
881.312,65.1221
881.491,64.8166
881.67,64.4301
881.848,64.2247
882.027,63.8562
882.206,63.661
882.385,63.3354
882.563,63.2162
882.742,63.0389
882.92,62.8624
883.099,62.4934
883.278,62.4734
883.456,62.4051
883.635,62.235
883.813,61.9273
883.992,61.699
884.17,61.4091
884.349,61.3216
884.527,61.0763
884.706,60.7289
884.884,60.5968
885.062,60.5228
885.241,60.2196
885.419,59.8785
885.597,59.4526
885.776,59.0935
885.954,58.9295
886.132,58.7691
886.311,58.8482
886.489,59.001
886.667,58.7491
886.845,58.5684
887.024,58.5034
887.202,58.0655
887.38,57.7431
887.558,57.3783
887.736,57.1153
887.915,56.8129
888.093,56.4746
888.271,56.2618
888.449,56.1748
888.627,56.0212
888.805,55.8508
888.983,55.417
889.161,55.0901
889.339,54.9628
889.517,54.8898
889.695,54.953
889.873,54.9114
890.051,54.5688
890.229,54.4399
890.407,54.243
890.585,53.9235
890.763,53.6879
890.94,53.3219
891.118,53.2211
891.296,52.7448
891.474,52.7298
891.652,52.6984
891.829,52.8306
892.007,52.5215
892.185,52.6654
892.363,52.119
892.54,51.9737
892.718,51.9395
892.896,51.7294
893.073,51.7928
893.251,51.6487
893.429,51.619
893.606,51.4468
893.784,51.2536
893.961,51.0661
894.139,51.0478
894.316,51.0963
894.494,50.9677
894.671,50.7348
894.849,50.5664
895.026,50.5573
895.204,50.2139
895.381,49.9895
895.559,49.8938
895.736,49.9649
895.913,50.9699
896.091,50.599
896.268,50.5404
896.446,50.5807
896.623,50.6314
896.8,50.4533
896.977,50.3987
897.155,50.2928
897.332,50.1467
897.509,49.9567
897.686,49.8461
897.864,49.9639
898.041,49.7687
898.218,49.5606
898.395,49.4575
898.572,49.3205
898.749,48.9925
898.926,48.8883
899.103,48.7936
899.281,48.8339
899.458,48.7253
899.635,48.5376
899.812,48.524
899.989,48.526
900.166,48.4072
900.343,48.0854
900.52,47.8167
900.696,47.6942
900.873,47.628
901.05,47.5275
901.227,47.4867
901.404,47.5403
901.581,47.4215
901.758,47.3013
901.934,47.2616
902.111,47.1682
902.288,47.1389
902.465,47.3302
902.642,47.1112
902.818,47.2767
902.995,47.2909
903.172,47.1778
903.348,46.9457
903.525,46.7511
903.702,46.7059
903.878,46.8524
904.055,46.8377
904.232,46.8153
904.408,46.9249
904.585,46.757
904.761,46.8644
904.938,46.5962
905.114,46.4821
905.291,46.3949
905.467,46.3144
905.644,46.2123
905.82,45.8582
905.997,45.5134
906.173,45.7801
906.349,45.5297
906.526,45.4726
906.702,45.6607
906.878,45.3829
907.055,45.4084
907.231,45.6515
907.407,45.5833
907.584,45.3314
907.76,45.1054
907.936,44.9552
908.112,45.1928
908.288,45.0027
908.465,44.921
908.641,44.8594
908.817,44.7571
908.993,44.543
909.169,44.7396
909.345,44.7374
909.521,44.6237
909.697,44.642
909.874,44.4517
910.05,44.3879
910.226,44.5432
910.402,44.5748
910.578,44.663
910.754,44.5026
910.929,44.468
911.105,44.2911
911.281,44.4303
911.457,44.3844
911.633,44.4395
911.809,44.2444
911.985,44.2153
912.161,44.1933
912.336,44.2787
912.512,44.3139
912.688,44.2224
912.864,44.0225
913.04,44.1287
913.215,43.9926
913.391,44.1091
913.567,44.1957
913.742,44.3221
913.918,44.2793
914.094,44.4472
914.269,44.2956
914.445,44.4266
914.621,44.4419
914.796,44.4839
914.972,44.5464
915.147,44.6355
915.323,44.5697
915.498,44.403
915.674,44.221
915.849,44.0926
916.025,43.8628
916.2,43.6627
916.376,43.5714
916.551,41.9839
916.726,42.2175
916.902,42.1787
917.077,42.2666
917.252,42.3947
917.428,42.2081
917.603,42.0465
917.778,41.8156
917.954,41.7948
918.129,41.7394
918.304,41.7618
918.479,41.7449
918.654,41.8221
918.83,41.4995
919.005,41.5554
919.18,41.4282
919.355,41.396
919.53,41.3816
919.705,41.4225
919.88,41.2909
920.055,41.0392
920.231,41.0339
920.406,41.0889
920.581,40.9895
920.756,40.8748
920.931,40.9121
921.106,41.0095
921.28,41.0806
921.455,41.1794
921.63,41.1077
921.805,40.9567
921.98,40.7933
922.155,41.0194
922.33,40.953
922.505,40.8261
922.679,40.8085
922.854,40.8322
923.029,41.0302
923.204,41.1283
923.378,41.3563
923.553,41.5358
923.728,41.7202
923.903,41.5699
924.077,41.5446
924.252,41.2371
924.427,41.2648
924.601,41.1024
924.776,41.0533
924.95,40.9872
925.125,40.7503
925.3,40.7474
925.474,40.727
925.649,40.7631
925.823,40.4564
925.998,40.5703
926.172,40.4701
926.346,40.337
926.521,40.2626
926.695,40.3072
926.87,40.22
927.044,40.1389
927.218,40.1094
927.393,40.133
927.567,39.8646
927.741,39.8296
927.916,39.7301
928.09,39.6774
928.264,39.7774
928.439,39.7505
928.613,39.6592
928.787,39.6818
928.961,39.7721
929.135,39.6986
929.31,39.8551
929.484,39.6839
929.658,39.5522
929.832,39.7312
930.006,39.7772
930.18,39.7369
930.354,39.6122
930.528,39.7564
930.702,39.724
930.876,39.8214
931.05,39.6464
931.224,38.5252
931.398,38.6821
931.572,38.5943
931.746,38.4392
931.92,38.204
932.094,37.9628
932.268,37.7606
932.442,37.6106
932.615,37.6155
932.789,37.4187
932.963,37.3062
933.137,37.1764
933.311,36.9918
933.484,36.9736
933.658,36.8846
933.832,36.8799
934.005,36.8404
934.179,36.6849
934.353,36.6136
934.526,36.4505
934.7,36.5314
934.874,36.5716
935.047,36.4628
935.221,36.2027
935.394,36.111
935.568,36.1451
935.741,36.3338
935.915,36.1732
936.088,36.3996
936.262,36.3203
936.435,36.106
936.609,36.8267
936.782,36.9545
936.956,36.9863
937.129,37.0458
937.302,36.9294
937.476,36.7896
937.649,36.4821
937.822,36.6191
937.996,36.3487
938.169,36.1432
938.342,36.1394
938.516,36.1626
938.689,36.1271
938.862,36.1703
939.035,36.1699
939.208,35.9527
939.382,35.8268
939.555,35.5009
939.728,35.7506
939.901,35.7903
940.074,36.2119
940.247,36.0943
940.42,36.0988
940.593,36.046
940.766,35.9645
940.939,36.2164
941.112,36.2268
941.285,36.2749
941.458,36.4479
941.631,36.5651
941.804,36.5227
941.977,36.3955
942.15,36.2688
942.323,36.0917
942.496,36.0819
942.668,36.1023
942.841,35.9929
943.014,36.1043
943.187,35.7076
943.36,35.5674
943.532,35.4989
943.705,35.4408
943.878,35.3646
944.051,35.7006
944.223,35.5898
944.396,35.7669
944.569,35.8533
944.741,35.8341
944.914,35.72
945.086,35.7626
945.259,35.6682
945.432,35.506
945.604,35.4213
945.777,35.4365
945.949,35.3432
946.122,35.4989
946.294,35.1904
946.467,35.2075
946.639,35.1832
946.811,35.2432
946.984,35.3251
947.156,35.5533
947.329,35.3713
947.501,35.3273
947.673,35.4215
947.846,35.5026
948.018,35.3277
948.19,35.3579
948.362,35.3785
948.535,35.2452
948.707,35.0834
948.879,35.2097
949.051,35.1953
949.224,35.1563
949.396,35.0979
949.568,34.9098
949.74,34.716
949.912,34.911
950.084,34.8195
950.256,34.8327
950.428,34.8364
950.6,34.9467
950.772,35.1213
950.944,35.3864
951.116,35.4848
951.288,35.5013
951.46,35.5305
951.632,35.4361
951.804,35.6466
951.976,35.5335
952.148,35.3803
952.32,35.6273
952.492,35.6666
952.664,35.6546
952.835,35.453
953.007,35.5584
953.179,35.266
953.351,35.2348
953.522,35.2026
953.694,35.3157
953.866,35.2177
954.038,35.526
954.209,35.6556
954.381,35.4628
954.553,35.2264
954.724,35.4877
954.896,35.7528
955.067,35.6591
955.239,35.4612
955.411,35.474
955.582,35.6263
955.754,35.6847
955.925,35.6422
956.097,35.5835
956.268,35.342
956.44,35.343
956.611,35.2552
956.782,35.2154
956.954,35.0324
957.125,34.9344
957.297,34.946
957.468,34.8525
957.639,34.88
957.811,34.7724
957.982,34.6879
958.153,34.4018
958.324,34.287
958.496,34.1485
958.667,34.0521
958.838,33.992
959.009,33.9997
959.18,34.0356
959.352,34.2206
959.523,34.2408
959.694,34.1878
959.865,34.2398
960.036,34.165
960.207,34.241
960.378,34.1159
960.549,34.1458
960.72,33.9318
960.891,33.8289
961.062,33.9591
961.233,33.8813
961.404,33.8672
961.575,33.9781
961.746,33.8919
961.917,33.7004
962.088,33.8524
962.259,33.8049
962.43,33.8438
962.6,34.005
962.771,33.9355
962.942,33.9752
963.113,33.9956
963.283,33.9958
963.454,34.0119
963.625,33.992
963.796,33.7957
963.966,33.694
964.137,33.6278
964.308,33.5722
964.478,33.4864
964.649,33.4142
964.82,33.4475
964.99,33.4018
965.161,33.3753
965.331,33.4485
965.502,33.1467
965.672,33.2706
965.843,33.1263
966.013,32.9217
966.184,32.957
966.354,33.0919
966.525,33.2019
966.695,33.5459
966.865,33.6435
967.036,33.7118
967.206,33.5718
967.376,33.8071
967.547,33.8098
967.717,33.8548
967.887,33.8304
968.058,33.6411
968.228,33.6174
968.398,33.5875
968.568,33.4994
968.739,33.5434
968.909,33.6074
969.079,33.6353
969.249,33.5873
969.419,33.6211
969.589,33.571
969.759,33.6826
969.929,33.8037
970.1,33.929
970.27,33.7554
970.44,33.9956
970.61,33.8008
970.78,34.0692
970.95,34.2911
971.12,33.4864
971.289,33.3372
971.459,33.2732
971.629,33.1461
971.799,33.1993
971.969,33.3311
972.139,33.314
972.309,33.4238
972.479,33.6345
972.648,33.7831
972.818,33.9365
972.988,33.7682
973.158,33.8055
973.327,33.7006
973.497,33.6315
973.667,33.6474
973.836,33.5528
974.006,33.6378
974.176,33.4721
974.345,33.3439
974.515,33.1039
974.685,33.0595
974.854,32.956
975.024,33.1353
975.193,33.2147
975.363,32.9492
975.532,32.9924
975.702,32.8512
975.871,32.7265
976.041,32.515
976.21,32.581
976.379,32.7214
976.549,32.7638
976.718,32.795
976.888,32.7416
977.057,32.829
977.226,32.9714
977.396,32.9973
977.565,33.3101
977.734,33.5394
977.903,33.7631
978.073,33.8324
978.242,34.0319
978.411,33.8691
978.58,33.8672
978.749,33.5587
978.919,33.3977
979.088,33.3089
979.257,33.228
979.426,33.326
979.595,33.3007
979.764,33.3511
979.933,33.2971
980.102,33.2645
980.271,33.1868
980.44,33.0686
980.609,33.2325
980.778,33.183
980.947,33.1175
981.116,32.9994
981.285,32.991
981.454,32.6955
981.622,32.7503
981.791,32.8404
981.96,32.7999
982.129,32.7723
982.298,32.7679
982.467,32.7583
982.635,32.6965
982.804,32.767
982.973,32.8549
983.141,32.9042
983.31,32.8846
983.479,32.7738
983.648,32.7664
983.816,32.8612
983.985,32.9688
984.153,32.6108
984.322,32.569
984.491,32.6517
984.659,32.6544
984.828,32.5284
984.996,32.3458
985.165,32.0919
985.333,32.0092
985.502,32.021
985.67,32.0603
985.838,31.774
986.007,31.6135
986.175,31.4223
986.344,31.5888
986.512,31.3384
986.68,31.3797
986.849,31.4612
987.017,31.6544
987.185,31.3736
987.353,31.6664
987.522,31.6768
987.69,31.6208
987.858,31.6648
988.026,31.6797
988.195,31.3351
988.363,31.4017
988.531,31.3255
988.699,31.6728
988.867,31.5968
989.035,31.4639
989.203,31.5415
989.371,31.4782
989.539,31.4765
989.707,31.6758
989.875,31.5868
990.043,31.5713
990.211,31.5654
990.379,31.7802
990.547,31.8209
990.715,31.827
990.883,31.7025
991.051,31.6799
991.219,31.6418
991.387,31.608
991.554,31.6216
991.722,31.6312
991.89,31.4936
992.058,31.3223
992.226,31.3926
992.393,31.3412
992.561,31.1947
992.729,31.2389
992.896,31.2
993.064,31.1751
993.232,31.1855
993.399,31.0847
993.567,31.0364
993.735,31.1647
993.902,31.3259
994.07,31.2513
994.237,31.2306
994.405,31.3449
994.572,31.5904
994.74,31.5796
994.907,31.7349
995.075,31.7243
995.242,31.7922
995.41,31.817
995.577,31.7781
995.744,32.1883
995.912,32.4406
996.079,32.4691
996.246,32.8274
996.414,33.0511
996.581,32.8098
996.748,32.8064
996.915,32.8861
997.083,32.9386
997.25,33.0258
997.417,33.1536
997.584,33.0809
997.751,33.1923
997.919,33.2622
998.086,33.4748
998.253,33.5777
998.42,33.6078
998.587,33.5591
998.754,34.7133
998.921,34.7967
999.088,34.6932
999.255,34.5063
999.422,34.499
999.589,34.4939
999.756,34.5362
999.923,34.524
1000.09,34.4778
1000.26,34.3522
1000.42,34.251
1000.59,33.929
1000.76,33.9349
1000.92,33.864
1001.09,33.9565
1001.26,33.9278
1001.42,33.9492
1001.59,33.962
1001.76,34.0745
1001.92,34.1301
1002.09,34.1605
1002.26,34.1699
1002.43,34.3186
1002.59,34.3763
1002.76,34.232
1002.92,34.2298
1003.09,34.1733
1003.26,34.2933
1003.42,34.3618
1003.59,34.2499
1003.76,34.091
1003.92,33.8674
1004.09,33.9991
1004.26,33.8658
1004.42,33.9561
1004.59,33.6243
1004.76,33.4898
1004.92,33.488
1005.09,33.5561
1005.26,33.4901
1005.42,33.521
1005.59,33.4373
1005.75,33.5373
1005.92,33.7798
1006.09,33.474
1006.25,33.3113
1006.42,33.2667
1006.59,33.1987
1006.75,33.2502
1006.92,33.1665
1007.08,33.261
1007.25,33.4039
1007.42,33.3138
1007.58,33.5147
1007.75,33.4976
1007.92,33.3749
1008.08,33.4536
1008.25,33.4587
1008.41,33.6404
1008.58,33.7739
1008.75,33.9227
1008.91,33.906
1009.08,34.143
1009.24,33.9844
1009.41,33.8742
1009.58,33.9257
1009.74,33.9467
1009.91,33.7464
1010.07,33.7637
1010.24,33.7892
1010.4,33.7209
1010.57,33.8699
1010.74,33.8514
1010.9,33.7617
1011.07,33.7874
1011.23,33.5006
1011.4,33.3195
1011.56,33.2133
1011.73,33.2942
1011.9,33.1679
1012.06,33.2366
1012.23,33.0356
1012.39,33.1587
1012.56,33.2848
1012.72,33.3272
1012.89,33.5361
1013.05,33.5634
1013.22,33.401
1013.39,33.3902
1013.55,33.4149
1013.72,33.3737
1013.88,33.4169
1014.05,33.345
1014.21,33.2194
1014.38,33.174
1014.54,33.2333
1014.71,33.3376
1014.87,33.2808
1015.04,33.2635
1015.21,33.2278
1015.37,33.1713
1015.54,33.1135
1015.7,33.0462
1015.87,32.9723
1016.03,33.1583
1016.2,33.1475
1016.36,33.1394
1016.53,33.0591
1016.69,32.8512
1016.86,32.9087
1017.02,33.2058
1017.19,33.1222
1017.35,33.1353
1017.52,33.1989
1017.68,33.2319
1017.85,33.1919
1018.01,33.0656
1018.18,33.033
1018.34,33.2127
1018.51,33.2498
1018.67,33.4114
1018.84,33.618
1019,33.6121
1019.17,33.5979
1019.33,33.7034
1019.5,33.7859
1019.66,33.9634
1019.83,33.7431
1019.99,33.9007
1020.16,33.7427
1020.32,33.6378
1020.49,33.6961
1020.65,33.7484
1020.81,33.7421
1020.98,33.9039
1021.14,33.9848
1021.31,33.8467
1021.47,33.7843
1021.64,34.2255
1021.8,34.0227
1021.97,34.3396
1022.13,34.0264
1022.3,34.1138
1022.46,34.0156
1022.62,33.972
1022.79,33.9632
1022.95,34.0111
1023.12,33.7849
1023.28,33.6557
1023.45,33.7847
1023.61,33.8422
1023.78,33.6559
1023.94,33.7709
1024.1,33.6384
1024.27,33.6586
1024.43,33.4634
1024.6,33.4868
1024.76,33.608
1024.93,33.679
1025.09,33.6539
1025.25,33.7448
1025.42,33.8762
1025.58,33.9406
1025.75,33.929
1025.91,33.9932
1026.07,33.8844
1026.24,34.0227
1026.4,34.0755
1026.57,34.0745
1026.73,34.0217
1026.9,34.003
1027.06,33.852
1027.22,33.6955
1027.39,33.8687
1027.55,34.0017
1027.72,33.9251
1027.88,33.7592
1028.04,33.9428
1028.21,33.8927
1028.37,33.7947
1028.53,33.7827
1028.7,34.0665
1028.86,40.9057
1029.03,47.2135
1029.19,16.2072
1029.35,55.1186
1029.52,59.5832
1029.68,7.93344
1029.84,32.7548
1030.01,27.1024
1030.17,36.1954
1030.34,21.3681
1030.5,25.1364
1030.66,26.57
1030.83,27.0205
1030.99,35.8268
1031.15,21.9825
1031.32,36.7688
1031.48,23.7438
1031.64,23.9076
1031.81,34.4342
1031.97,17.0674
1032.13,24.9316
1032.3,6.17219
1032.46,62.5323
1032.62,32.1404
1032.79,41.3153
1032.95,34.9257
1033.11,12.8076
1033.28,44.4692
1033.44,42.7489
1033.6,18.3371
1033.77,37.8747
1033.93,47.0087
1034.09,19.2382
1034.26,29.0275
1034.42,28.8227
1034.58,13.7906
1034.75,55.4463
1034.91,29.7238
1035.07,57.4943
1035.24,66.4644
1035.4,31.7308
1035.56,34.1065
1035.73,20.0165
1035.89,47.4592
1036.05,23.5799
1036.21,7.31905
1036.38,41.7249
1036.54,2.44488
1036.7,12.6438
1036.87,50.2445
1037.03,10.432
1037.19,66.0138
1037.35,65.0308
1037.52,44.3054
1037.68,25.3412
1037.84,39.3083
1038.01,90.3437
1038.17,31.1574
1038.33,70.2736
1038.49,5.51684
1038.66,59.7061
1038.82,8.13824
1038.98,30.8297
1039.15,9.69469
1039.31,52.3334
1039.47,28.8637
1039.63,0.560753
1039.8,53.1936
1039.96,32.0176
1040.12,3.71463
1040.28,50.3674
1040.45,11.9475
1040.61,26.57
1040.77,-4.27245
1040.93,20.3032
1041.1,51.719
1041.26,40.0046
1041.42,20.0984
1041.58,26.8567
1041.75,33.2054
1041.91,37.2194
1042.07,28.577
1042.23,27.9216
1042.39,9.98141
1042.56,33.6969
1042.72,14.4869
1042.88,27.4301
1043.04,22.5969
1043.21,27.9216
1043.37,5.92643
1043.53,33.6969
1043.69,44.5511
1043.85,53.6441
1044.02,31.7308
1044.18,38.2024
1044.34,48.6471
1044.5,31.0345
1044.66,5.47588
1044.83,25.7917
1044.99,75.926
EndSpectrumFile,CALIBRATION
EndCalFile
